COUNTER,INTERPOLATED,Cz,Fz,Fp1,F7,F3,FC1,C3,FC5,FT9,T7,CP5,CP1,P3,P7,PO9,O1,Pz,Oz,O2,PO10,P8,P4,CP2,CP6,T8,FT10,FC6,C4,FC2,F4,F8,Fp2,HighBitFlex,SaturationFlag,RAW_CQ,MARKER_HARDWARE,MARKERS,Human Readable Time,New Label
87,0,96.134,40.091,-24.61,44.676,23.414,22.307,-729.781,-289.516,-36.196,-186.797,-51.454,53.968,-6.361,-153.701,-225.524,-122.911,1000.693,-61.179,32.343,-204.911,-270.218,19.199,-0.773,-185.1,-211.54,-2581.96,-249.204,51.909,-9.908,-65.934,-297.77,-136.719,0.0,65536.0,215.0,0,1688564272.8603,2023-07-05 15:37:52,Rest
88,0,97.575,39.026,-24.586,42.582,25.952,21.26,-732.125,-287.69,-40.77,-192.246,-46.279,55.451,-2.768,-152.522,-232.471,-125.862,1008.914,-61.63,31.798,-203.169,-271.485,19.692,1.277,-189.526,-220.038,-2580.403,-250.492,52.369,-4.775,-68.43,-307.206,-144.779,0.0,0.0,207.0,0,1688564272.8682,2023-07-05 15:37:52,Rest
89,0,96.453,36.426,-25.586,38.441,28.488,14.578,-763.668,-297.136,-44.315,-203.324,-55.455,55.396,-15.061,-163.128,-232.75,-114.465,1040.693,-75.4,27.668,-213.724,-296.316,10.963,-1.286,-200.095,-248.507,-2582.946,-266.123,40.534,-10.918,-67.849,-316.12,-148.221,0.0,65600.0,210.0,0,1688564272.876,2023-07-05 15:37:52,Rest
90,1,96.499,36.194,-25.412,37.924,27.858,14.577,-762.73,-297.33,-44.026,-203.188,-55.449,55.56,-14.604,-163.11,-232.212,-113.314,1038.414,-75.164,27.608,-212.847,-297.593,10.677,-0.944,-201.211,-249.447,-2582.943,-267.061,39.675,-11.03,-68.126,-316.484,-148.546,0.0,0.0,191.0,0,1688564272.8839,2023-07-05 15:37:52,Rest
91,1,96.545,35.962,-25.239,37.408,27.229,14.575,-761.791,-297.525,-43.736,-203.051,-55.442,55.725,-14.147,-163.092,-231.674,-112.163,1036.136,-74.928,27.548,-211.969,-298.869,10.392,-0.603,-202.328,-250.387,-2582.941,-267.999,38.817,-11.143,-68.403,-316.847,-148.871,0.0,0.0,207.0,0,1688564272.8918,2023-07-05 15:37:52,Rest
92,1,96.592,35.731,-25.065,36.891,26.6,14.573,-760.852,-297.72,-43.447,-202.915,-55.436,55.89,-13.69,-163.074,-231.136,-111.011,1033.857,-74.692,27.488,-211.092,-300.145,10.106,-0.261,-203.444,-251.327,-2582.938,-268.937,37.958,-11.255,-68.68,-317.21,-149.196,0.0,0.0,209.0,0,1688564272.8996,2023-07-05 15:37:52,Rest
93,1,96.638,35.499,-24.891,36.375,25.971,14.572,-759.913,-297.914,-43.157,-202.778,-55.43,56.054,-13.233,-163.056,-230.598,-109.86,1031.578,-74.456,27.428,-210.214,-301.422,9.82,0.081,-204.56,-252.267,-2582.936,-269.876,37.1,-11.368,-68.957,-317.574,-149.521,0.0,0.0,212.0,0,1688564272.9074,2023-07-05 15:37:52,Rest
94,1,96.684,35.267,-24.718,35.858,25.341,14.57,-758.975,-298.109,-42.868,-202.642,-55.424,56.219,-12.776,-163.038,-230.06,-108.709,1029.299,-74.22,27.368,-209.336,-302.698,9.534,0.422,-205.676,-253.208,-2582.934,-270.814,36.242,-11.481,-69.234,-317.937,-149.846,0.0,0.0,198.0,0,1688564272.9152,2023-07-05 15:37:52,Rest
95,1,96.73,35.035,-24.544,35.341,24.712,14.569,-758.036,-298.304,-42.578,-202.506,-55.418,56.384,-12.319,-163.02,-229.521,-107.558,1027.021,-73.984,27.308,-208.459,-303.974,9.248,0.764,-206.792,-254.148,-2582.931,-271.752,35.383,-11.593,-69.511,-318.3,-150.171,0.0,0.0,221.0,0,1688564272.923,2023-07-05 15:37:52,Rest
96,1,96.776,34.804,-24.37,34.825,24.083,14.567,-757.097,-298.498,-42.289,-202.369,-55.412,56.548,-11.861,-163.001,-228.983,-106.407,1024.742,-73.748,27.248,-207.581,-305.251,8.962,1.106,-207.909,-255.088,-2582.929,-272.69,34.525,-11.706,-69.789,-318.664,-150.496,0.0,0.0,0.0,0,1688564272.9308,2023-07-05 15:37:52,Rest
97,1,96.823,34.572,-24.197,34.308,23.453,14.565,-756.159,-298.693,-41.999,-202.233,-55.405,56.713,-11.404,-162.983,-228.445,-105.256,1022.463,-73.512,27.188,-206.704,-306.527,8.677,1.447,-209.025,-256.028,-2582.927,-273.628,33.667,-11.819,-70.066,-319.027,-150.821,0.0,0.0,0.0,0,1688564272.9386,2023-07-05 15:37:52,Rest
98,0,96.869,34.34,-24.023,33.792,22.824,14.564,-755.22,-298.888,-41.71,-202.096,-55.399,56.877,-10.947,-162.965,-227.907,-104.104,1020.185,-73.276,27.128,-205.826,-307.803,8.391,1.789,-210.141,-256.968,-2582.924,-274.566,32.808,-11.931,-70.343,-319.39,-151.146,4096.0,0.0,0.0,0,1688564272.9464,2023-07-05 15:37:52,Rest
99,0,96.26,33.281,-19.901,37.856,23.826,13.525,-752.415,-291.929,-31.422,-197.796,-54.832,59.382,-9.912,-168.438,-228.704,-102.463,1009.431,-89.084,17.367,-222.014,-327.988,9.919,-2.311,-223.763,-269.006,-2585.464,-284.025,31.751,-12.432,-72.834,-321.632,-150.483,3712.0,0.0,0.0,0,1688564272.9542,2023-07-05 15:37:52,Rest
100,0,93.09,33.248,-15.782,37.819,23.802,11.974,-758.323,-293.174,-24.73,-206.819,-56.314,56.249,-22.71,-179.54,-240.258,-111.07,998.175,-111.537,3.005,-245.87,-347.127,0.688,-3.333,-235.835,-275.91,-2584.416,-291.938,24.035,-14.468,-69.175,-319.262,-150.332,3968.0,0.0,0.0,0,1688564272.962,2023-07-05 15:37:52,Rest
101,0,92.484,37.313,-10.131,35.219,23.778,10.425,-761.151,-291.856,-22.144,-217.371,-62.917,51.07,-36.519,-193.193,-257.436,-121.718,981.295,-125.257,-4.171,-252.285,-365.223,-7.51,-5.379,-251.993,-284.855,-2583.881,-299.843,10.691,-15.479,-62.958,-320.992,-145.571,3968.0,0.0,0.0,0,1688564272.9697,2023-07-05 15:37:52,Rest
102,0,97.003,45.985,10.371,50.553,37.587,18.099,-736.824,-278.244,-17.511,-205.371,-62.342,54.605,-37.507,-196.073,-262.302,-133.891,950.6,-124.107,0.444,-244.86,-369.981,4.281,0.261,-255.327,-287.644,-2576.174,-300.568,13.754,-8.291,-52.649,-317.597,-127.495,4096.0,0.0,0.0,0,1688564272.9775,2023-07-05 15:37:52,Rest
103,0,104.078,55.673,31.878,66.896,55.992,29.864,-703.299,-270.794,-25.691,-195.431,-56.132,63.259,-34.908,-193.316,-266.65,-145.54,917.374,-119.373,5.055,-236.418,-357.316,15.547,13.069,-243.289,-279.672,-2570.011,-295.144,22.961,-1.622,-40.301,-307.033,-111.998,4096.0,65600.0,0.0,0,1688564272.9852,2023-07-05 15:37:52,Rest
104,0,109.609,62.79,40.043,62.219,59.01,33.421,-712.33,-271.548,-57.94,-210.605,-54.027,68.831,-36.41,-200.295,-275.093,-140.272,940.023,-121.815,1.463,-240.28,-351.323,19.63,15.617,-239.459,-278.88,-2573.077,-295.362,24.475,-2.133,-34.113,-304.677,-106.251,4608.0,256.0,0.0,0,1688564272.993,2023-07-05 15:37:52,Rest
105,0,106.426,62.215,46.15,55.497,51.779,32.363,-743.893,-269.227,-90.158,-217.055,-56.022,69.275,-36.886,-205.73,-270.719,-124.762,971.871,-127.841,-2.124,-250.286,-357.12,23.197,14.065,-249.466,-293.458,-2581.262,-308.386,19.84,-1.106,-32.542,-311.032,-102.559,4096.0,65856.0,0.0,0,1688564273.0007,2023-07-05 15:37:53,Rest
106,0,102.733,55.492,52.252,61.589,51.215,32.33,-731.366,-273.056,-103.388,-199.931,-56.478,68.181,-30.189,-194.766,-265.326,-127.711,938.623,-123.102,-1.097,-247.474,-358.299,20.1,19.174,-258.95,-306.485,-2595.075,-327.546,9.574,-0.593,-31.997,-316.869,-103.481,3456.0,65536.0,0.0,0,1688564273.0085,2023-07-05 15:37:53,Rest
107,0,105.192,55.949,61.421,68.187,58.848,36.909,-703.482,-274.32,-70.496,-194.096,-52.836,71.699,-19.401,-181.763,-261.474,-121.948,905.409,-112.22,0.441,-243.128,-361.527,21.616,23.253,-262.278,-310.789,-2606.824,-336.44,3.417,0.945,-27.867,-317.576,-99.279,3584.0,65792.0,0.0,0,1688564273.0163,2023-07-05 15:37:53,Rest
108,0,106.111,63.578,80.828,69.656,68.011,41.995,-735.054,-261.75,-37.638,-206.197,-42.024,74.189,-18.869,-181.581,-242.77,-89.039,937.292,-112.108,-1.097,-259.279,-377.047,27.23,24.767,-273.286,-318.163,-2611.39,-340.714,2.901,7.091,-19.642,-314.697,-79.199,4096.0,98624.0,0.0,0,1688564273.0241,2023-07-05 15:37:53,Rest
109,0,104.468,68.125,97.141,73.172,74.603,43.49,-760.447,-257.39,-4.813,-212.651,-32.761,70.016,-29.608,-188.572,-234.842,-74.093,948.137,-120.193,-7.243,-277.463,-400.236,16.445,27.304,-296.067,-335.263,-2622.611,-355.23,-7.86,9.133,-10.913,-309.26,-61.189,3968.0,256.0,0.0,0,1688564273.0318,2023-07-05 15:37:53,Rest
110,0,109.487,72.668,106.777,83.858,84.774,47.033,-726.898,-255.083,27.98,-209.877,-30.679,69.946,-33.677,-198.117,-249.464,-95.535,914.914,-123.147,-10.822,-279.235,-418.791,11.305,28.301,-308.066,-341.588,-2637.919,-365.633,-15.025,9.124,-0.656,-303.315,-53.444,4096.0,65856.0,0.0,0,1688564273.0396,2023-07-05 15:37:53,Rest
111,0,116.037,78.23,115.38,91.458,94.936,51.596,-724.122,-238.947,34.612,-209.155,-30.648,75.512,-33.644,-209.19,-253.826,-93.903,909.901,-128.147,-12.861,-281.005,-423.496,24.101,28.785,-302.122,-331.512,-2646.552,-360.657,-6.813,13.214,11.128,-299.425,-50.829,3968.0,0.0,0.0,0,1688564273.0473,2023-07-05 15:37:53,Rest
112,0,115.921,74.566,108.092,80.096,89.718,44.885,-754.137,-242.294,12.548,-219.704,-34.204,73.899,-42.319,-218.715,-253.572,-81.001,931.532,-139.802,-21.045,-290.97,-421.023,22.54,24.145,-301.308,-326.058,-2659.274,-360.809,-9.367,8.59,8.043,-297.589,-58.975,3968.0,0.0,0.0,0,1688564273.055,2023-07-05 15:37:53,Rest
113,0,111.707,63.733,92.102,64.647,74.259,36.643,-746.723,-263.056,32.003,-230.243,-40.317,75.362,-48.937,-220.033,-262.027,-91.167,898.325,-145.809,-29.221,-294.265,-420.09,12.784,15.924,-309.204,-334.441,-2674.033,-368.132,-22.166,-3.714,-3.236,-292.681,-70.699,3712.0,65536.0,0.0,0,1688564273.0628,2023-07-05 15:37:53,Rest
114,0,104.935,54.96,87.912,63.558,70.086,33.532,-743.927,-256.133,48.365,-220.791,-45.912,81.947,-51.962,-220.325,-262.278,-91.588,871.812,-148.225,-32.265,-288.335,-418.133,14.82,10.785,-314.53,-353.574,-2692.876,-373.912,-29.316,-9.346,-4.257,-287.265,-81.899,3968.0,0.0,0.0,0,1688564273.0705,2023-07-05 15:37:53,Rest
115,0,94.072,42.61,76.041,58.371,63.868,20.691,-772.896,-244.606,16.041,-212.373,-58.162,69.057,-68.816,-233.425,-263.04,-86.885,876.063,-158.323,-42.479,-290.096,-415.153,4.559,1.553,-324.974,-377.299,-2722.459,-385.321,-43.631,-17.021,-9.376,-288.002,-106.408,3712.0,33554688.0,0.0,0,1688564273.0784,2023-07-05 15:37:53,Rest
116,0,86.293,27.198,45.739,38.333,40.238,4.277,-781.857,-255.632,0.656,-224.969,-71.936,47.471,-83.604,-248.561,-275.072,-101.143,849.059,-167.386,-56.269,-304.151,-418.836,-12.351,-13.306,-338.993,-383.069,-2752.012,-396.207,-63.055,-32.373,-22.174,-283.104,-131.917,3840.0,33554432.0,0.0,0,1688564273.0861,2023-07-05 15:37:53,Rest
117,0,83.133,20.511,24.688,22.413,25.341,0.174,-780.563,-253.328,21.147,-236.014,-73.401,46.399,-76.348,-249.337,-276.847,-106.677,834.89,-168.244,-61.336,-317.679,-427.639,-10.29,-19.952,-339.679,-372.952,-2768.215,-394.273,-68.115,-42.075,-25.226,-271.55,-146.129,3968.0,0.0,0.0,0,1688564273.0939,2023-07-05 15:37:53,Rest
118,0,76.902,9.732,9.807,9.583,22.242,-9.048,-796.177,-242.828,21.638,-237.315,-76.913,45.84,-73.71,-249.087,-280.668,-107.083,843.277,-173.711,-70.496,-328.632,-442.068,-11.816,-28.642,-343.95,-376.678,-2797.722,-398.49,-75.219,-52.279,-31.349,-271.278,-172.623,3712.0,33554432.0,0.0,0,1688564273.1016,2023-07-05 15:37:53,Rest
119,0,65.555,-16.406,-19.405,-13.993,1.215,-32.605,-810.75,-255.905,8.297,-247.324,-93.23,22.741,-87.981,-261.134,-302.929,-133.104,818.355,-191.98,-89.893,-346.746,-465.705,-33.321,-50.642,-365.123,-389.621,-2827.2,-417.559,-97.173,-72.719,-53.346,-278.691,-204.726,3840.0,2181038080.0,0.0,0,1688564273.1094,2023-07-05 15:37:53,Rest
120,0,51.657,-36.369,-46.538,-36.008,-27.476,-48.454,-823.771,-268.969,4.702,-261.421,-105.433,3.25,-98.652,-271.119,-321.069,-155.0,794.483,-210.743,-105.172,-367.404,-491.367,-50.707,-68.522,-382.176,-391.281,-2837.693,-431.998,-116.544,-89.552,-68.15,-275.339,-228.087,3968.0,0.0,0.0,0,1688564273.1171,2023-07-05 15:37:53,Rest
121,0,39.822,-42.993,-56.225,-44.682,-37.182,-56.602,-841.903,-261.016,1.112,-268.845,-115.573,-4.95,-110.336,-281.094,-329.457,-162.529,791.127,-221.803,-118.387,-379.845,-509.831,-58.853,-73.577,-389.991,-391.914,-2842.027,-437.202,-127.698,-97.148,-70.131,-266.354,-241.692,3968.0,0.0,0.0,0,1688564273.1249,2023-07-05 15:37:53,Rest
122,0,30.048,-57.295,-66.927,-51.297,-45.342,-69.353,-854.893,-257.169,1.623,-276.773,-133.388,-21.339,-133.792,-301.305,-343.472,-176.711,765.232,-239.512,-137.224,-390.223,-522.129,-72.114,-82.725,-403.946,-397.67,-2862.239,-444.962,-143.964,-109.858,-78.258,-259.428,-262.455,3840.0,0.0,0.0,0,1688564273.1326,2023-07-05 15:37:53,Rest
123,0,22.334,-77.73,-87.865,-66.615,-61.69,-85.166,-870.432,-265.621,3.158,-286.742,-144.526,-39.761,-150.564,-318.934,-352.351,-184.219,734.753,-264.888,-150.919,-399.567,-527.242,-89.46,-101.085,-416.35,-400.346,-2889.091,-457.324,-164.313,-126.142,-92.012,-254.045,-286.271,3712.0,0.0,0.0,0,1688564273.1405,2023-07-05 15:37:53,Rest
124,0,18.725,-85.849,-102.634,-76.794,-65.727,-93.79,-880.832,-266.892,-5.554,-290.042,-145.918,-45.869,-151.951,-323.226,-355.072,-182.498,725.822,-275.382,-154.355,-399.68,-521.079,-95.518,-112.767,-417.982,-395.847,-2904.133,-463.527,-174.395,-132.676,-94.481,-246.619,-301.354,3968.0,0.0,0.0,0,1688564273.1482,2023-07-05 15:37:53,Rest
125,0,19.731,-86.275,-102.531,-75.693,-65.661,-96.257,-877.39,-258.428,-7.086,-288.727,-149.359,-45.823,-151.286,-325.465,-361.889,-187.951,716.899,-269.471,-154.713,-399.28,-510.312,-90.812,-110.093,-416.028,-381.107,-2902.253,-462.039,-175.757,-134.08,-89.776,-227.929,-305.663,3712.0,0.0,0.0,0,1688564273.156,2023-07-05 15:37:53,Rest
126,0,14.588,-95.411,-108.576,-84.326,-80.453,-99.235,-883.685,-250.997,-3.492,-292.537,-150.746,-48.338,-154.721,-329.238,-361.015,-186.738,702.862,-272.275,-159.681,-410.664,-512.876,-92.771,-112.032,-419.71,-369.455,-2907.548,-468.237,-185.827,-139.069,-94.81,-211.308,-316.628,3968.0,0.0,0.0,0,1688564273.1637,2023-07-05 15:37:53,Rest
127,0,4.327,-113.246,-132.034,-106.784,-97.278,-109.382,-896.121,-255.869,-13.223,-303.515,-156.231,-56.999,-159.177,-328.396,-352.457,-177.843,681.667,-281.225,-171.817,-430.745,-535.929,-102.924,-126.265,-433.123,-379.844,-2935.379,-486.212,-203.572,-149.176,-105.473,-210.584,-341.415,3712.0,0.0,0.0,0,1688564273.1715,2023-07-05 15:37:53,Rest
0,0,-0.8,-124.916,-148.808,-118.46,-106.402,-119.519,-897.787,-264.835,-26.017,-315.507,-167.858,-67.188,-163.117,-329.092,-356.715,-178.689,650.759,-286.579,-184.453,-451.831,-558.959,-104.87,-135.36,-440.374,-384.075,-2957.034,-492.898,-211.566,-160.298,-108.954,-203.201,-356.955,0.0,0.0,222.0,0,1688564273.1792,2023-07-05 15:37:53,Rest
1,0,-2.336,-127.352,-150.196,-119.366,-111.419,-124.522,-906.111,-261.496,-35.213,-326.462,-167.177,-71.732,-169.101,-337.985,-364.043,-180.048,634.227,-298.588,-194.514,-467.774,-573.257,-107.327,-138.811,-435.323,-365.76,-2965.348,-486.769,-214.428,-168.847,-108.333,-177.895,-359.672,0.0,0.0,229.0,0,1688564273.187,2023-07-05 15:37:53,Rest
2,0,8.425,-132.86,-155.169,-124.37,-113.357,-129.009,-924.16,-250.989,-45.936,-333.308,-163.424,-79.857,-178.666,-347.893,-361.118,-175.769,627.957,-313.658,-205.078,-474.99,-591.127,-124.126,-149.43,-442.572,-363.345,-2987.998,-494.48,-228.046,-173.801,-110.273,-163.372,-369.046,0.0,0.0,212.0,0,1688564273.1947,2023-07-05 15:37:53,Rest
3,0,38.13,-141.949,-162.186,-125.782,-119.904,-131.441,-931.433,-245.615,-50.501,-331.95,-169.921,-92.585,-187.709,-354.205,-360.244,-177.13,613.497,-317.443,-211.021,-474.515,-602.831,-135.785,-156.965,-461.085,-373.228,-3017.285,-507.817,-244.212,-180.287,-112.212,-156.037,-379.947,0.0,33554432.0,225.0,0,1688564273.2026,2023-07-05 15:37:53,Rest
4,0,64.22,-146.418,-162.536,-124.12,-125.419,-130.285,-934.087,-243.32,-51.987,-330.081,-172.312,-95.054,-194.693,-359.998,-363.47,-178.49,606.223,-318.663,-211.322,-470.967,-588.908,-134.624,-157.833,-463.185,-357.998,-3033.736,-503.723,-252.164,-187.279,-110.051,-131.802,-382.641,0.0,0.0,142.0,0,1688564273.2103,2023-07-05 15:37:53,Rest
5,0,66.205,-148.321,-168.522,-132.192,-120.171,-132.716,-941.35,-238.978,-65.255,-339.997,-174.701,-97.52,-202.183,-367.323,-366.693,-179.336,603.568,-330.127,-217.258,-473.57,-572.95,-140.637,-165.36,-459.648,-341.758,-3043.51,-498.609,-258.572,-190.166,-103.793,-103.493,-386.357,0.0,0.0,225.0,0,1688564273.2181,2023-07-05 15:37:53,Rest
6,0,59.479,-157.394,-179.111,-140.257,-122.612,-140.78,-947.581,-238.227,-80.047,-352.465,-185.285,-111.768,-211.715,-376.69,-370.937,-183.768,586.571,-344.142,-228.312,-481.293,-581.599,-153.304,-172.879,-468.923,-351.15,-3058.909,-508.357,-270.097,-194.074,-103.177,-89.045,-391.606,0.0,0.0,223.0,0,1688564273.2258,2023-07-05 15:37:53,Rest
7,0,60.444,-171.069,-186.105,-143.703,-139.908,-148.837,-957.392,-237.476,-88.676,-358.26,-189.198,-120.365,-219.188,-383.485,-371.078,-181.022,569.078,-352.507,-237.305,-486.447,-589.726,-160.323,-178.854,-476.651,-357.971,-3078.904,-515.02,-284.171,-206.175,-112.296,-79.222,-399.924,0.0,0.0,222.0,0,1688564273.2336,2023-07-05 15:37:53,Rest
8,0,64.994,-180.119,-193.603,-154.318,-147.453,-155.348,-967.193,-232.116,-97.297,-363.537,-191.058,-122.294,-221.53,-381.565,-369.683,-175.718,557.238,-358.814,-243.216,-494.67,-585.55,-163.749,-188.921,-475.662,-350.441,-3091.194,-508.358,-293.621,-215.191,-113.208,-59.676,-411.819,0.0,0.0,208.0,0,1688564273.2413,2023-07-05 15:37:53,Rest
9,0,68.003,-181.988,-200.582,-163.385,-145.768,-159.803,-970.837,-224.199,-103.859,-365.223,-206.237,-130.881,-222.333,-376.06,-369.825,-176.567,544.898,-366.652,-251.169,-510.057,-593.162,-167.684,-193.343,-475.698,-340.869,-3093.226,-504.263,-297.426,-216.513,-105.41,-32.464,-414.994,0.0,0.0,193.0,0,1688564273.249,2023-07-05 15:37:53,Rest
10,0,71.009,-184.368,-204.48,-164.759,-150.233,-162.205,-972.94,-219.364,-107.854,-359.735,-220.375,-135.361,-225.697,-375.172,-361.771,-172.804,539.742,-371.409,-258.09,-520.305,-611.524,-171.615,-194.687,-478.296,-332.331,-3104.99,-509.394,-305.838,-223.468,-107.866,-9.89,-418.677,0.0,0.0,212.0,0,1688564273.2568,2023-07-05 15:37:53,Rest
11,0,77.085,-191.356,-212.472,-172.278,-154.181,-165.117,-971.967,-217.608,-113.894,-358.863,-225.278,-136.25,-226.496,-377.358,-354.237,-167.508,529.981,-372.062,-261.931,-524.396,-617.06,-175.029,-202.177,-480.38,-327.901,-3120.84,-512.983,-318.852,-234.003,-112.369,8.051,-429.529,0.0,0.0,217.0,0,1688564273.2646,2023-07-05 15:37:53,Rest
12,0,85.718,-200.386,-218.407,-177.229,-160.687,-170.587,-971.507,-215.853,-117.878,-361.578,-227.102,-147.897,-226.782,-380.567,-361.055,-174.001,508.446,-376.301,-267.304,-528.482,-624.64,-180.49,-205.561,-481.949,-323.987,-3115.67,-509.909,-326.218,-236.843,-106.109,29.56,-432.174,0.0,0.0,217.0,0,1688564273.2724,2023-07-05 15:37:53,Rest
13,0,90.243,-205.309,-215.115,-170.392,-169.748,-173.49,-980.782,-204.879,-118.273,-362.241,-227.899,-155.946,-237.314,-385.822,-364.28,-177.413,501.79,-385.146,-272.16,-529.491,-643.483,-190.555,-204.33,-488.127,-310.343,-3106.919,-508.374,-334.088,-236.606,-102.417,52.072,-426.618,0.0,0.0,221.0,0,1688564273.2801,2023-07-05 15:37:53,Rest
14,0,88.103,-202.542,-211.314,-167.148,-157.283,-170.755,-987.485,-184.694,-120.204,-369.563,-231.257,-152.204,-245.785,-393.633,-359.305,-172.113,513.584,-391.421,-272.4,-533.06,-648.987,-197.537,-203.614,-496.86,-298.761,-3110.472,-507.354,-347.074,-237.907,-97.191,82.246,-421.069,0.0,0.0,208.0,0,1688564273.2879,2023-07-05 15:37:53,Rest
15,0,82.892,-198.241,-211.615,-172.104,-143.806,-170.072,-984.961,-171.189,-120.596,-373.292,-239.735,-156.15,-250.663,-402.973,-365.606,-179.625,512.045,-398.202,-276.739,-544.822,-641.166,-195.803,-205.459,-497.388,-293.852,-3108.899,-503.26,-368.756,-239.718,-81.725,114.952,-413.475,0.0,1073741824.0,218.0,0,1688564273.2956,2023-07-05 15:37:53,Rest
16,0,75.124,-209.313,-221.137,-182.178,-161.593,-182.71,-992.685,-179.215,-127.135,-367.283,-250.766,-171.363,-267.318,-413.841,-378.56,-197.889,500.263,-413.173,-290.294,-555.548,-646.16,-205.853,-214.988,-496.378,-292.021,-3115.524,-504.294,-400.663,-250.749,-82.155,137.378,-424.332,0.0,134217728.0,210.0,0,1688564273.3034,2023-07-05 15:37:53,Rest
17,0,67.365,-229.596,-239.871,-200.951,-183.973,-197.384,-1006.55,-193.893,-140.841,-371.014,-256.663,-181.95,-276.785,-418.038,-383.305,-206.912,503.861,-426.079,-295.127,-551.919,-655.248,-222.553,-228.093,-504.079,-291.729,-3134.95,-508.913,-429.464,-264.331,-95.393,147.999,-449.524,0.0,0.0,216.0,0,1688564273.3111,2023-07-05 15:37:53,Rest
18,0,64.736,-231.928,-244.755,-208.435,-183.276,-197.186,-1007.592,-187.551,-144.286,-378.328,-247.697,-181.768,-266.262,-410.447,-381.384,-208.242,514.628,-421.043,-290.221,-540.096,-644.347,-218.745,-229.914,-505.111,-280.167,-3129.766,-500.719,-420.325,-266.628,-90.175,179.102,-448.049,0.0,0.0,199.0,0,1688564273.319,2023-07-05 15:37:53,Rest
19,0,64.159,-226.573,-239.387,-203.615,-181.556,-196.477,-1006.072,-176.093,-145.166,-372.827,-240.277,-185.173,-269.069,-405.939,-378.954,-211.62,514.113,-417.035,-293.517,-544.166,-633.456,-214.94,-231.221,-501.02,-260.419,-3122.025,-490.485,-421.442,-267.898,-81.888,211.711,-436.843,0.0,1073741824.0,219.0,0,1688564273.3268,2023-07-05 15:37:53,Rest
20,0,60.508,-240.179,-250.93,-217.756,-189.059,-209.088,-1013.263,-176.429,-162.439,-374.503,-252.845,-198.82,-284.682,-417.828,-384.21,-221.655,509.5,-430.451,-301.933,-565.139,-640.507,-231.119,-242.261,-508.716,-259.646,-3149.641,-496.142,-452.783,-279.926,-90.515,227.38,-450.238,0.0,0.0,217.0,0,1688564273.3346,2023-07-05 15:37:53,Rest
21,0,64.546,-255.308,-264.512,-238.031,-193.993,-216.564,-1023.008,-169.08,-177.134,-387.961,-261.814,-208.867,-286.446,-427.144,-392.023,-234.753,511.04,-439.242,-304.192,-570.209,-644.477,-239.084,-251.24,-514.355,-262.46,-3169.033,-498.207,-470.261,-288.355,-91.961,254.818,-460.547,0.0,0.0,210.0,0,1688564273.3423,2023-07-05 15:37:53,Rest
22,0,71.654,-256.077,-263.735,-240.355,-196.873,-215.835,-1029.158,-160.714,-172.858,-392.184,-260.015,-211.732,-288.722,-428.254,-392.143,-243.227,518.214,-433.679,-303.888,-561.442,-640.759,-236.796,-253.038,-509.742,-248.878,-3169.963,-489.512,-478.5,-288.579,-83.16,287.35,-453.426,0.0,1073741824.0,208.0,0,1688564273.3501,2023-07-05 15:37:53,Rest
23,0,60.824,-264.531,-269.107,-242.163,-208.459,-223.816,-1031.202,-168.238,-173.198,-392.816,-270.513,-220.742,-302.777,-437.047,-397.899,-253.23,520.769,-437.856,-306.658,-566.516,-649.34,-248.342,-259.445,-516.405,-240.944,-3199.068,-492.096,-500.051,-296.487,-82.565,309.605,-458.608,0.0,33554432.0,218.0,0,1688564273.3578,2023-07-05 15:37:53,Rest
24,0,43.857,-272.975,-276.01,-248.581,-216.448,-229.74,-1033.245,-157.824,-181.222,-396.522,-282.026,-229.23,-309.647,-446.344,-414.407,-265.785,518.712,-450.739,-311.474,-571.585,-659.449,-260.902,-265.333,-526.647,-232.506,-3228.144,-491.092,-506.211,-304.388,-79.408,338.497,-459.686,0.0,33554432.0,210.0,0,1688564273.3656,2023-07-05 15:37:53,Rest
25,0,47.399,-265.018,-269.586,-250.382,-208.034,-225.924,-1031.699,-132.051,-180.528,-396.125,-281.232,-229.001,-311.387,-448.459,-421.677,-273.716,519.73,-460.534,-316.286,-565.891,-657.765,-262.69,-264.043,-524.071,-205.122,-3206.473,-472.158,-502.631,-300.497,-64.472,370.946,-441.296,0.0,1073741824.0,212.0,0,1688564273.3733,2023-07-05 15:37:53,Rest
26,0,44.79,-268.339,-274.44,-258.841,-205.777,-232.87,-1034.766,-136.529,-180.86,-396.754,-288.635,-235.432,-329.006,-462.868,-425.354,-285.225,519.723,-481.59,-326.216,-578.645,-665.816,-273.186,-268.39,-531.232,-190.572,-3195.582,-467.075,-518.01,-305.32,-59.797,396.703,-442.391,0.0,0.0,194.0,0,1688564273.3812,2023-07-05 15:37:53,Rest
27,0,21.692,-288.051,-293.121,-268.316,-225.039,-251.593,-1052.175,-144.077,-185.29,-400.968,-303.203,-253.64,-349.169,-480.848,-440.81,-306.969,516.129,-506.724,-343.308,-601.632,-682.057,-291.868,-281.441,-551.193,-197.041,-3224.662,-479.415,-533.886,-320.896,-66.397,409.626,-465.003,0.0,33554432.0,210.0,0,1688564273.3889,2023-07-05 15:37:53,Rest
28,0,27.305,-292.886,-297.951,-267.023,-233.011,-254.927,-1061.881,-120.88,-185.104,-400.567,-304.437,-261.071,-349.845,-475.756,-448.054,-316.396,523.81,-508.267,-348.088,-601.543,-675.739,-296.699,-285.771,-548.592,-183.012,-3228.61,-469.202,-535.401,-323.649,-59.158,439.955,-466.587,0.0,0.0,210.0,0,1688564273.3967,2023-07-05 15:37:53,Rest
29,0,60.066,-291.568,-299.189,-277.514,-224.581,-248.012,-1052.11,-107.439,-193.116,-405.801,-304.645,-255.687,-340.786,-465.547,-436.335,-310.444,534.557,-491.365,-334.42,-593.257,-654.059,-286.669,-283.436,-530.113,-158.238,-3208.475,-445.167,-536.403,-323.325,-42.193,472.302,-456.899,0.0,1073741825.0,216.0,0,1688564273.4044,2023-07-05 15:37:53,Rest
30,0,58.981,-304.084,-312.723,-303.364,-238.701,-253.4,-1050.545,-111.43,-212.903,-419.74,-315.099,-257.992,-341.982,-470.204,-428.726,-309.622,525.825,-482.676,-330.499,-595.737,-650.331,-284.333,-289.812,-532.657,-161.154,-3215.0,-443.697,-540.989,-332.736,-42.151,488.224,-467.713,0.0,0.0,199.0,0,1688564273.4121,2023-07-05 15:37:53,Rest
31,0,32.794,-311.465,-321.631,-312.795,-255.881,-261.856,-1056.667,-101.072,-221.912,-425.468,-317.857,-266.956,-344.201,-471.783,-431.884,-314.947,520.176,-485.267,-338.366,-597.703,-656.341,-291.221,-294.646,-547.493,-168.677,-3229.716,-449.913,-549.67,-335.477,-46.207,507.203,-475.442,0.0,0.0,225.0,0,1688564273.4199,2023-07-05 15:37:53,Rest
32,0,34.299,-310.129,-317.724,-303.261,-246.916,-259.545,-1055.61,-85.089,-217.591,-417.87,-309.343,-267.201,-339.759,-464.651,-435.038,-317.194,533.488,-492.979,-336.49,-596.593,-649.024,-294.003,-289.228,-547.97,-150.578,-3224.949,-438.705,-557.317,-333.092,-33.353,539.484,-462.671,3456.0,1073741824.0,0.0,0,1688564273.4276,2023-07-05 15:37:53,Rest
33,0,40.412,-312.892,-312.283,-294.248,-242.058,-257.748,-1065.313,-65.537,-214.812,-407.206,-310.058,-266.934,-347.616,-470.334,-438.189,-320.975,533.98,-501.708,-335.129,-603.681,-648.375,-298.32,-290.988,-543.324,-130.96,-3217.114,-420.336,-556.76,-335.833,-19.488,571.732,-451.45,3712.0,1073741824.0,0.0,0,1688564273.4354,2023-07-05 15:37:53,Rest
34,0,27.564,-310.53,-308.384,-291.905,-242.84,-261.589,-1074.494,-35.757,-218.184,-399.115,-318.969,-274.864,-366.736,-486.258,-439.8,-326.29,522.687,-508.378,-338.38,-604.614,-674.367,-308.78,-296.332,-549.441,-124.169,-3211.847,-404.546,-556.715,-334.985,-9.734,602.411,-445.876,3712.0,0.0,0.0,0,1688564273.4432,2023-07-05 15:37:53,Rest
35,0,28.049,-298.437,-303.465,-292.125,-225.179,-257.741,-1056.513,-16.254,-223.601,-398.715,-315.576,-274.589,-367.394,-491.919,-437.311,-325.963,529.849,-512.993,-330.87,-590.69,-683.939,-310.008,-289.376,-550.94,-104.064,-3198.389,-386.723,-557.183,-329.014,10.768,634.596,-429.036,3968.0,1073741824.0,0.0,0,1688564273.451,2023-07-05 15:37:53,Rest
36,0,37.242,-290.454,-295.477,-285.173,-214.195,-250.311,-1040.088,-8.041,-225.426,-396.78,-304.502,-265.093,-361.903,-488.866,-433.8,-322.051,539.053,-518.628,-326.953,-580.877,-653.541,-302.014,-282.426,-537.069,-71.173,-3185.457,-363.282,-550.478,-324.075,30.737,666.75,-410.164,3840.0,1090519040.0,0.0,0,1688564273.4587,2023-07-05 15:37:53,Rest
37,0,27.471,-294.262,-292.108,-281.302,-223.715,-252.622,-1049.294,4.775,-224.176,-384.088,-307.272,-269.439,-373.324,-489.402,-431.317,-323.778,536.977,-526.306,-336.359,-583.883,-635.469,-305.81,-285.73,-530.897,-51.634,-3188.419,-347.038,-551.977,-326.824,37.366,697.334,-408.217,3712.0,0.0,0.0,0,1688564273.4665,2023-07-05 15:37:53,Rest
38,0,11.05,-309.849,-307.697,-299.976,-234.25,-262.616,-1060.028,3.233,-230.612,-377.044,-313.625,-282.489,-377.562,-481.74,-422.689,-325.504,543.612,-529.366,-339.609,-580.225,-645.08,-316.775,-291.592,-545.735,-61.316,-3213.92,-350.789,-569.356,-339.817,34.255,707.395,-423.178,3712.0,0.0,0.0,0,1688564273.4742,2023-07-05 15:37:53,Rest
39,0,5.403,-323.371,-327.37,-320.168,-243.749,-269.013,-1059.48,-2.918,-241.652,-381.79,-305.114,-280.67,-357.717,-460.254,-406.897,-315.445,555.876,-518.59,-332.097,-566.837,-631.115,-316.458,-295.399,-548.776,-61.255,-3240.932,-356.074,-576.983,-346.65,29.098,714.372,-437.611,3712.0,0.0,0.0,0,1688564273.482,2023-07-05 15:37:53,Rest
40,0,11.033,-312.289,-321.407,-310.114,-240.432,-262.084,-1047.662,23.725,-239.874,-375.772,-288.927,-265.02,-335.842,-439.301,-389.072,-300.272,568.128,-493.993,-317.421,-554.487,-597.696,-299.748,-283.833,-523.124,-28.406,-3230.519,-325.491,-564.623,-331.959,47.512,746.445,-424.366,4224.0,1091567616.0,0.0,0,1688564273.4897,2023-07-05 15:37:53,Rest
41,0,29.465,-282.263,-291.884,-286.238,-208.428,-241.33,-1020.487,56.489,-226.314,-352.855,-272.757,-245.287,-320.649,-424.005,-378.949,-293.824,587.54,-475.569,-294.562,-540.613,-575.581,-274.858,-258.446,-492.887,4.41,-3194.501,-292.378,-543.566,-312.159,80.252,778.486,-391.154,3968.0,3875537024.0,0.0,0,1688564273.4975,2023-07-05 15:37:53,Rest
42,0,43.78,-265.587,-270.587,-270.582,-186.191,-224.695,-1000.511,80.511,-219.94,-332.522,-256.603,-233.771,-312.132,-414.872,-380.107,-293.53,600.785,-475.093,-280.947,-527.264,-563.735,-262.287,-247.941,-474.463,37.194,-3165.691,-261.86,-525.604,-301.601,106.812,810.496,-360.024,3328.0,1090519040.0,0.0,0,1688564273.5053,2023-07-05 15:37:53,Rest
43,0,39.638,-263.785,-265.706,-261.602,-186.005,-223.445,-1000.022,99.898,-224.331,-321.944,-254.297,-234.562,-317.455,-419.58,-378.19,-289.651,599.16,-480.253,-279.129,-521.614,-549.339,-264.074,-250.255,-466.304,49.964,-3160.476,-248.278,-520.98,-294.127,114.902,842.473,-346.344,3456.0,1073741824.0,0.0,0,1688564273.5131,2023-07-05 15:37:53,Rest
44,0,39.599,-255.836,-258.268,-256.218,-172.499,-219.636,-998.51,127.463,-223.594,-309.839,-259.166,-232.791,-321.236,-424.796,-367.053,-284.75,602.659,-476.187,-270.141,-517.506,-551.351,-262.786,-241.295,-464.301,62.722,-3157.828,-222.926,-521.996,-290.759,134.255,874.418,-329.092,3712.0,1073741824.0,0.0,0,1688564273.5208,2023-07-05 15:37:53,Rest
45,0,46.731,-242.261,-246.739,-248.277,-155.932,-210.707,-991.364,146.291,-217.223,-297.233,-251.222,-226.41,-319.378,-422.834,-363.1,-281.904,616.401,-474.174,-263.723,-515.964,-563.095,-261.498,-232.857,-459.226,95.447,-3149.035,-194.527,-514.302,-288.931,156.15,906.331,-306.734,3712.0,1090519040.0,0.0,0,1688564273.5286,2023-07-05 15:37:53,Rest
46,0,42.074,-237.407,-243.931,-240.344,-159.875,-212.033,-991.909,154.854,-218.542,-298.473,-243.798,-227.208,-325.718,-425.997,-369.909,-282.647,624.494,-484.458,-270.632,-521.084,-553.31,-264.311,-234.674,-448.008,127.627,-3136.664,-174.864,-508.152,-281.47,169.313,935.651,-291.058,3840.0,0.0,0.0,0,1688564273.5363,2023-07-05 15:37:53,Rest
47,0,35.884,-238.707,-243.687,-243.177,-157.153,-213.358,-988.868,168.531,-222.422,-301.248,-245.604,-228.006,-322.319,-420.448,-363.904,-279.29,627.455,-484.998,-264.726,-509.804,-522.531,-261.485,-229.316,-435.777,142.868,-3129.941,-153.173,-510.206,-277.09,182.464,967.503,-278.471,3840.0,1073741824.0,0.0,0,1688564273.5441,2023-07-05 15:37:53,Rest
48,0,43.02,-238.468,-238.32,-242.422,-145.725,-204.435,-975.584,175.023,-218.102,-283.529,-236.649,-219.069,-303.553,-391.338,-338.949,-261.593,635.537,-466.07,-246.018,-479.58,-502.541,-253.026,-219.865,-424.583,154.509,-3131.934,-135.089,-508.671,-276.813,191.503,994.2,-270.508,3456.0,0.0,0.0,0,1688564273.5518,2023-07-05 15:37:53,Rest
49,0,46.051,-236.181,-237.057,-233.47,-148.141,-198.596,-968.461,152.306,-214.81,-263.777,-225.654,-213.726,-295.565,-370.967,-320.167,-245.962,647.197,-451.772,-238.087,-463.219,-498.452,-245.089,-216.571,-419.547,167.162,-3131.876,-123.683,-505.601,-272.438,197.459,1013.698,-266.139,4224.0,0.0,0.0,0,1688564273.5596,2023-07-05 15:37:53,Rest
50,0,42.419,-229.284,-235.283,-230.163,-143.895,-195.835,-965.443,134.223,-215.619,-260.952,-223.891,-209.927,-290.659,-372.133,-316.773,-245.203,656.284,-443.123,-233.751,-458.658,-478.486,-236.647,-211.744,-410.419,187.487,-3123.621,-99.993,-502.533,-264.481,216.73,1040.349,-252.553,3712.0,0.0,0.0,0,1688564273.5674,2023-07-05 15:37:53,Rest
51,0,46.987,-220.346,-224.802,-220.199,-124.283,-184.369,-949.621,159.704,-209.256,-250.445,-208.81,-195.884,-269.876,-360.49,-307.235,-237.274,671.509,-421.675,-218.148,-439.756,-445.22,-223.602,-198.725,-387.467,220.087,-3112.813,-70.691,-489.223,-253.458,240.079,1067.486,-233.345,3968.0,17825792.0,0.0,0,1688564273.5752,2023-07-05 15:37:53,Rest
52,0,54.113,-215.515,-216.892,-207.171,-119.036,-173.938,-936.888,186.185,-202.387,-227.653,-187.085,-182.881,-253.725,-335.539,-292.583,-221.667,695.428,-403.835,-202.048,-421.898,-425.819,-210.059,-187.255,-373.759,238.31,-3107.139,-56.276,-476.439,-242.958,251.622,1084.862,-220.816,3200.0,0.0,0.0,0,1688564273.5829,2023-07-05 15:37:53,Rest
53,0,54.571,-212.738,-213.089,-211.062,-121.99,-172.74,-940.05,174.728,-203.721,-219.741,-189.971,-180.649,-252.959,-329.056,-289.216,-220.421,709.59,-402.919,-196.211,-419.939,-420.782,-205.238,-184.506,-375.947,238.584,-3109.155,-39.314,-474.425,-239.129,260.592,1099.146,-206.763,4352.0,0.0,0.0,0,1688564273.5907,2023-07-05 15:37:53,Rest
54,0,58.615,-200.742,-202.118,-203.679,-104.45,-167.444,-934.499,179.676,-200.956,-216.96,-191.831,-178.419,-250.656,-334.362,-285.341,-219.688,711.442,-398.418,-188.842,-408.76,-404.48,-205.033,-179.711,-361.739,266.01,-3101.947,-7.511,-464.217,-233.767,281.336,1118.539,-180.429,5120.0,0.0,0.0,0,1688564273.5984,2023-07-05 15:37:53,Rest
55,0,68.29,-178.512,-181.423,-173.249,-80.267,-152.932,-915.121,212.284,-188.46,-199.324,-167.048,-166.457,-243.233,-325.831,-271.223,-202.562,719.439,-390.847,-173.796,-388.372,-387.682,-195.094,-163.137,-336.786,298.532,-3079.89,24.259,-445.822,-218.676,310.769,1150.208,-151.559,3840.0,1090519168.0,0.0,0,1688564273.6061,2023-07-05 15:37:53,Rest
56,0,72.32,-163.476,-167.409,-159.756,-69.428,-143.557,-906.522,240.761,-183.661,-184.78,-149.462,-158.606,-239.916,-314.746,-263.78,-192.114,728.966,-397.116,-164.913,-386.446,-381.659,-188.239,-151.704,-329.277,306.943,-3069.125,49.85,-438.716,-210.26,329.925,1181.846,-132.452,3712.0,1073741824.0,0.0,0,1688564273.6139,2023-07-05 15:37:53,Rest
57,0,68.662,-163.313,-166.217,-162.67,-64.236,-144.951,-906.64,239.496,-186.551,-182.034,-151.875,-164.083,-247.361,-318.53,-260.442,-189.872,724.651,-404.916,-167.822,-390.671,-370.006,-196.76,-156.163,-325.874,306.636,-3073.228,69.781,-440.327,-210.05,336.256,1184.25,-117.463,3840.0,0.0,0.0,0,1688564273.6216,2023-07-05 15:37:53,Rest
58,0,66.544,-158.027,-158.367,-150.212,-51.364,-140.195,-897.536,255.138,-184.827,-169.556,-143.526,-161.357,-249.163,-320.261,-239.689,-170.727,721.877,-399.9,-161.507,-371.837,-348.632,-196.563,-151.908,-315.302,321.698,-3066.569,86.617,-434.763,-201.131,349.752,1182.041,-95.316,3840.0,0.0,0.0,0,1688564273.6295,2023-07-05 15:37:53,Rest
59,0,71.6,-141.987,-137.204,-129.569,-31.845,-124.173,-887.417,287.67,-181.056,-146.333,-122.89,-141.216,-230.983,-300.985,-213.322,-140.33,731.914,-385.156,-138.804,-343.8,-328.303,-176.386,-131.776,-301.667,339.82,-3050.695,112.658,-421.009,-186.585,371.431,1207.499,-69.093,3712.0,128.0,0.0,0,1688564273.6372,2023-07-05 15:37:53,Rest
60,0,79.213,-129.037,-120.16,-115.608,-14.395,-110.217,-879.357,311.461,-177.801,-128.768,-109.447,-125.705,-211.284,-277.118,-194.153,-115.087,733.231,-367.352,-118.172,-326.551,-304.921,-160.328,-116.787,-279.848,358.435,-3039.447,139.185,-404.706,-173.079,390.015,1238.055,-46.482,3840.0,0.0,0.0,0,1688564273.645,2023-07-05 15:37:53,Rest
61,0,88.356,-115.588,-102.622,-102.172,1.501,-97.299,-861.059,327.031,-168.914,-116.344,-94.993,-114.309,-197.753,-260.959,-166.295,-83.208,719.178,-349.054,-99.611,-313.416,-280.025,-148.385,-102.838,-260.613,371.397,-3031.285,160.563,-388.42,-155.999,412.167,1259.87,-17.234,3840.0,0.0,0.0,0,1688564273.6527,2023-07-05 15:37:53,Rest
62,0,107.735,-87.808,-69.731,-82.602,27.115,-74.66,-838.681,349.246,-158.499,-96.76,-69.283,-90.116,-171.94,-237.645,-133.341,-50.338,722.045,-327.188,-76.458,-298.758,-260.278,-125.183,-77.632,-245.495,380.759,-3020.056,193.19,-366.514,-134.326,443.005,1285.763,15.57,3968.0,2214641668.0,0.0,0,1688564273.6605,2023-07-05 15:37:53,Rest
63,0,129.144,-59.031,-36.874,-55.367,59.876,-46.921,-812.227,378.098,-152.193,-76.683,-42.061,-65.948,-143.591,-211.791,-113.227,-25.696,735.667,-304.832,-54.352,-283.09,-243.623,-101.491,-52.964,-219.634,403.945,-3005.766,225.785,-342.069,-109.601,474.838,1309.58,48.343,3840.0,2214592532.0,0.0,0,1688564273.6682,2023-07-05 15:37:53,Rest
64,0,139.774,-37.967,-4.562,-24.061,92.604,-25.357,-778.627,407.946,-144.869,-61.75,-22.551,-52.562,-135.25,-200.309,-113.626,-37.454,702.656,-295.305,-36.367,-267.95,-230.06,-89.607,-34.468,-200.972,423.521,-2998.149,247.588,-327.383,-85.413,504.077,1325.689,81.082,0.0,2147549264.0,223.0,0,1688564273.676,2023-07-05 15:37:53,Rest
65,0,149.88,-11.289,28.231,8.751,125.299,-3.815,-745.061,440.326,-133.453,-42.733,-5.623,-35.091,-130.504,-193.449,-115.05,-53.298,669.678,-291.424,-16.863,-255.899,-222.145,-78.759,-11.38,-195.135,426.683,-2992.589,270.394,-311.686,-63.299,535.336,1352.028,113.789,0.0,2147549404.0,228.0,0,1688564273.6837,2023-07-05 15:37:53,Rest
66,0,172.272,21.509,60.99,41.53,157.961,24.878,-747.39,472.673,-121.536,-19.124,15.388,-13.539,-117.054,-180.96,-88.295,-20.457,701.796,-277.3,2.622,-238.737,-206.554,-60.749,14.247,-170.862,446.237,-2968.592,302.912,-283.71,-35.571,567.588,1383.464,146.462,0.0,3825303710.0,212.0,0,1688564273.6916,2023-07-05 15:37:53,Rest
67,0,183.37,44.542,90.643,57.37,180.857,45.346,-778.918,489.107,-116.804,-9.883,29.717,-0.205,-111.302,-174.119,-55.419,12.351,733.882,-265.24,12.865,-211.346,-185.855,-48.393,33.188,-151.736,471.406,-2949.23,335.397,-267.545,-12.994,595.71,1413.331,179.104,0.0,2214707264.0,221.0,0,1688564273.6993,2023-07-05 15:37:53,Rest
68,0,173.453,42.448,103.36,56.8,182.725,44.788,-797.607,485.031,-119.761,-13.459,29.175,0.82,-116.826,-175.482,-39.482,26.683,765.936,-268.048,13.365,-199.352,-180.034,-50.906,38.278,-162.855,464.787,-2965.236,338.647,-276.499,-12.468,597.675,1408.844,186.609,0.0,65536.0,147.0,0,1688564273.7071,2023-07-05 15:37:53,Rest
69,0,168.669,39.844,112.478,65.452,185.617,45.768,-764.021,486.083,-121.178,-5.249,30.683,0.307,-116.709,-172.232,-53.274,-4.082,732.895,-266.243,23.597,-199.152,-174.731,-51.368,39.777,-157.056,460.736,-2976.615,347.018,-275.71,-11.431,599.639,1406.923,199.743,0.0,65600.0,224.0,0,1688564273.7148,2023-07-05 15:37:53,Rest
70,0,178.746,60.809,130.809,80.244,205.411,66.215,-757.622,503.016,-114.397,13.712,48.583,14.651,-100.198,-154.129,-34.778,15.902,764.949,-249.071,49.189,-176.924,-143.305,-33.898,54.594,-124.624,486.915,-2956.733,379.459,-252.38,9.585,627.729,1438.303,232.331,0.0,3288399872.0,223.0,0,1688564273.7226,2023-07-05 15:37:53,Rest
71,0,188.301,84.826,154.756,87.848,226.722,83.567,-771.721,520.443,-105.573,23.432,67.49,35.129,-80.63,-130.921,-1.956,48.674,796.972,-231.403,69.632,-145.496,-113.96,-15.933,76.056,-109.13,507.945,-2945.579,411.867,-236.246,26.994,651.18,1464.53,261.812,0.0,67223552.0,221.0,0,1688564273.7303,2023-07-05 15:37:53,Rest
72,0,193.748,92.939,166.897,98.007,236.23,88.606,-738.162,534.268,-103.419,33.655,80.742,43.29,-69.279,-117.47,3.169,42.99,763.9,-219.901,82.883,-135.105,-105.649,-10.794,85.202,-101.336,518.195,-2945.195,435.021,-230.375,33.627,657.701,1468.701,275.383,0.0,65600.0,208.0,0,1688564273.7381,2023-07-05 15:37:53,Rest
73,0,201.239,102.067,172.878,113.79,249.826,101.838,-712.833,553.713,-100.241,54.626,98.08,53.493,-55.89,-105.57,9.314,50.632,760.062,-204.312,102.78,-126.26,-89.662,2.024,94.338,-77.669,536.633,-2927.905,463.788,-216.312,46.913,677.535,1486.187,300.21,0.0,0.0,192.0,0,1688564273.7458,2023-07-05 15:37:53,Rest
74,0,210.772,114.773,183.976,126.996,271.605,117.617,-714.682,578.263,-91.432,74.039,113.863,71.883,-36.878,-83.947,33.895,75.172,792.09,-186.689,120.608,-107.691,-68.568,21.49,109.613,-58.636,548.391,-2912.169,494.062,-198.677,60.699,702.985,1509.292,317.329,0.0,65536.0,211.0,0,1688564273.7537,2023-07-05 15:37:53,Rest
75,0,219.783,121.318,189.939,133.529,283.116,124.16,-681.179,599.201,-86.217,90.871,126.557,80.52,-22.497,-70.031,33.349,52.043,759.022,-174.719,130.733,-95.288,-59.79,28.128,119.75,-49.868,551.941,-2905.159,516.622,-186.695,67.81,710.479,1523.152,322.134,0.0,65600.0,215.0,0,1688564273.7614,2023-07-05 15:37:53,Rest
76,0,226.735,132.98,189.237,132.883,289.493,131.72,-647.71,614.484,-82.033,111.272,142.312,87.1,-10.691,-63.301,29.217,34.572,725.988,-159.688,149.558,-77.774,-40.263,34.76,125.778,-31.375,569.833,-2884.835,545.819,-174.726,77.476,719.503,1549.806,337.181,0.0,65600.0,216.0,0,1688564273.7692,2023-07-05 15:37:53,Rest
77,0,225.996,145.655,186.999,129.164,298.425,138.249,-679.338,628.726,-69.655,124.993,151.904,100.332,1.615,-47.356,61.976,67.325,758.049,-141.597,171.438,-46.958,-8.459,50.607,132.824,-10.339,595.903,-2864.02,578.061,-161.231,85.596,736.714,1575.92,345.553,0.0,67223616.0,219.0,0,1688564273.7769,2023-07-05 15:37:53,Rest
78,0,220.135,143.46,179.639,127.498,301.201,135.036,-710.934,645.004,-58.315,131.528,154.826,104.843,6.736,-33.477,94.702,100.046,790.079,-130.697,182.537,-24.369,13.578,57.217,135.765,2.479,612.725,-2857.569,604.635,-152.36,86.535,740.076,1579.98,339.06,0.0,114752.0,208.0,0,1688564273.7847,2023-07-05 15:37:53,Rest
79,0,218.378,142.292,173.312,125.322,300.9,136.951,-684.608,658.703,-54.158,142.155,165.429,104.738,12.877,-22.172,105.878,99.946,773.92,-120.32,194.65,-7.951,45.84,61.258,140.24,21.944,630.556,-2843.953,629.646,-142.474,90.034,739.848,1588.134,338.209,0.0,0.0,215.0,0,1688564273.7924,2023-07-05 15:37:53,Rest
80,0,220.721,149.322,172.626,127.245,305.722,145.011,-651.136,662.143,-48.469,157.382,174.485,113.343,26.697,0.904,120.629,100.358,747.53,-100.732,213.923,17.672,78.582,75.541,148.809,50.612,650.93,-2822.154,656.169,-129.012,95.58,747.305,1604.989,337.871,0.0,1048640.0,210.0,0,1688564273.8002,2023-07-05 15:37:53,Rest
81,0,217.939,149.685,165.794,133.778,306.953,143.841,-668.927,662.505,-42.785,171.057,178.409,118.865,34.355,16.272,142.537,121.262,779.571,-86.799,224.467,38.659,88.75,80.589,150.709,63.369,657.963,-2808.573,671.906,-123.247,96.509,749.119,1607.482,337.02,0.0,65536.0,211.0,0,1688564273.8079,2023-07-05 15:37:53,Rest
82,0,216.184,147.998,158.456,136.718,306.134,143.697,-671.845,674.651,-37.619,180.62,193.6,121.82,43.542,19.33,148.542,126.777,811.066,-83.126,225.78,41.694,76.878,77.434,154.657,61.768,658.33,-2800.129,685.579,-121.587,98.974,749.907,1607.412,346.417,0.0,0.0,198.0,0,1688564273.8157,2023-07-05 15:37:53,Rest
83,0,221.603,153.998,159.322,138.631,314.025,153.287,-645.557,694.468,-29.897,191.71,205.702,130.407,61.941,34.679,149.419,122.039,792.837,-72.285,235.288,40.116,90.121,87.091,162.7,71.953,667.918,-2789.132,707.947,-109.17,105.535,759.916,1615.538,350.682,0.0,0.0,211.0,0,1688564273.8235,2023-07-05 15:37:53,Rest
84,0,221.894,157.43,156.601,144.128,321.395,154.671,-641.838,704.532,-27.305,204.326,200.373,133.863,67.002,46.94,164.126,132.163,793.581,-56.331,250.934,51.859,112.06,98.274,163.561,87.25,679.033,-2783.269,727.219,-96.766,109.528,765.816,1618.533,347.769,0.0,0.0,219.0,0,1688564273.8312,2023-07-05 15:37:53,Rest
85,0,218.598,160.346,149.272,146.545,323.123,149.905,-648.881,712.025,-28.815,207.196,200.685,131.167,58.738,39.209,175.745,140.74,819.94,-52.689,257.856,65.127,104.263,95.615,162.373,89.212,677.842,-2780.998,740.837,-95.644,107.881,763.001,1616.402,354.594,0.0,0.0,206.0,0,1688564273.839,2023-07-05 15:37:53,Rest
86,0,221.965,165.309,150.66,148.96,328.435,154.879,-636.961,724.633,-22.126,206.476,211.755,136.159,63.291,39.169,167.885,127.279,830.903,-54.685,263.745,70.185,98.524,96.544,167.846,95.27,678.188,-2775.656,758.027,-92.475,110.847,765.312,1615.298,364.485,0.0,0.0,196.0,0,1688564273.8467,2023-07-05 15:37:53,Rest
87,0,225.842,167.705,155.12,154.959,336.816,161.384,-626.59,735.179,-15.956,218.565,219.228,142.171,77.06,58.598,161.569,113.832,843.392,-46.433,279.363,85.996,131.213,109.255,173.314,119.254,694.416,-2763.659,777.249,-79.062,119.958,771.206,1619.831,369.244,0.0,1048576.0,212.0,0,1688564273.8545,2023-07-05 15:37:53,Rest
88,0,223.055,165.488,147.792,152.242,335.455,160.198,-631.087,735.98,-19.526,228.08,225.156,141.516,81.081,70.322,174.215,117.817,864.066,-32.555,290.867,113.575,163.869,116.318,173.653,134.504,712.165,-2753.723,787.742,-72.836,120.862,771.46,1623.334,369.899,0.0,1048576.0,208.0,0,1688564273.8622,2023-07-05 15:37:53,Rest
89,0,216.171,157.126,131.763,141.844,324.873,155.427,-633.53,731.146,-22.581,218.118,226.468,137.789,77.926,66.666,183.775,124.359,855.005,-31.498,291.088,122.17,154.484,108.004,169.893,129.246,707.354,-2756.604,789.004,-79.935,111.52,767.102,1609.415,360.308,0.0,0.0,210.0,0,1688564273.87,2023-07-05 15:37:53,Rest
90,0,206.734,148.772,122.41,136.067,319.937,148.099,-631.871,730.415,-22.558,208.679,216.508,134.577,73.75,63.013,174.37,123.722,830.583,-43.761,288.748,116.925,151.768,100.212,164.088,128.605,692.815,-2762.045,793.85,-82.929,107.31,763.261,1588.85,354.312,0.0,0.0,191.0,0,1688564273.8778,2023-07-05 15:37:53,Rest
91,0,200.379,149.648,123.824,134.906,325.253,144.365,-633.289,735.832,-23.56,218.204,211.681,131.881,69.065,62.438,168.047,118.988,809.773,-51.915,288.972,123.981,173.645,100.624,163.924,138.722,692.634,-2759.795,800.741,-76.698,109.252,761.985,1584.7,360.106,0.0,0.0,207.0,0,1688564273.8856,2023-07-05 15:37:53,Rest
92,0,199.154,155.133,124.213,137.333,329.538,149.344,-634.192,735.609,-22.0,229.256,215.567,131.749,67.971,61.863,170.953,108.623,776.688,-47.764,293.293,133.078,171.423,100.011,168.883,143.194,694.503,-2757.035,805.063,-72.011,112.217,760.199,1585.165,363.844,0.0,65536.0,208.0,0,1688564273.8933,2023-07-05 15:37:53,Rest
93,0,198.955,156.003,121.015,141.294,332.283,152.78,-633.558,730.775,-20.441,227.49,219.45,137.765,73.027,65.387,169.758,102.366,743.636,-42.081,302.734,136.019,161.517,100.936,173.325,150.736,690.223,-2755.303,814.504,-67.328,117.227,760.976,1578.969,367.579,0.0,65536.0,211.0,0,1688564273.9011,2023-07-05 15:37:53,Rest
94,0,198.244,156.871,122.943,140.128,337.073,152.628,-630.363,734.655,-20.933,223.164,222.817,144.287,79.613,71.982,166.002,104.826,742.38,-38.965,310.116,144.08,179.287,109.032,176.737,171.077,696.705,-2749.986,829.059,-59.576,120.184,764.313,1572.779,375.92,0.0,0.0,197.0,0,1688564273.9088,2023-07-05 15:37:53,Rest
95,0,193.947,157.227,121.795,138.451,337.761,154.524,-628.708,738.531,-19.887,226.527,225.668,144.143,80.558,73.447,165.836,102.159,762.13,-33.803,315.953,154.182,190.378,113.533,177.073,183.714,704.717,-2745.187,837.964,-54.906,120.576,763.549,1560.448,376.569,0.0,0.0,220.0,0,1688564273.9166,2023-07-05 15:37:53,Rest
96,0,191.192,157.582,120.137,145.485,340.497,158.468,-627.567,739.841,-15.256,236.035,226.467,145.023,79.966,73.373,171.305,98.983,758.806,-25.572,326.396,167.86,181.991,112.395,177.921,183.018,694.791,-2740.392,840.712,-51.265,125.066,761.761,1546.592,378.242,3968.0,0.0,0.0,0,1688564273.9243,2023-07-05 15:37:53,Rest
97,0,192.537,159.474,125.652,151.487,347.841,160.359,-624.378,748.835,-12.68,239.897,228.802,149.489,81.935,81.497,174.72,104.007,753.436,-21.961,334.266,180.5,188.981,109.721,183.378,185.396,691.535,-2736.115,840.384,-46.603,128.527,758.95,1538.898,387.597,4224.0,0.0,0.0,0,1688564273.9321,2023-07-05 15:37:53,Rest
98,0,181.074,153.679,118.866,140.577,342.883,154.563,-626.828,748.087,-16.765,229.411,223.962,142.167,79.291,88.076,169.935,96.731,756.781,-27.062,331.371,174.172,201.6,99.365,179.096,182.649,697.503,-2739.014,835.445,-50.142,121.739,746.408,1518.916,381.062,4224.0,0.0,0.0,0,1688564273.9399,2023-07-05 15:37:53,Rest
99,0,158.864,144.816,102.354,125.579,329.22,145.699,-632.348,732.482,-18.798,218.423,214.005,133.316,75.626,89.524,168.74,84.851,759.098,-29.084,330.527,170.924,206.009,92.606,170.72,178.368,690.146,-2742.935,834.097,-55.728,117.006,740.026,1498.954,369.922,4736.0,0.0,0.0,0,1688564273.9477,2023-07-05 15:37:53,Rest
100,0,148.459,147.745,104.813,122.892,326.329,148.115,-627.618,730.724,-14.168,223.84,213.791,138.818,81.186,95.07,174.207,89.377,762.438,-20.858,337.881,187.146,218.098,98.661,174.648,191.51,682.283,-2738.655,842.997,-48.499,122.013,746.458,1499.504,379.286,3968.0,0.0,0.0,0,1688564273.9554,2023-07-05 15:37:53,Rest
101,0,141.65,147.085,103.683,119.183,324.978,148.992,-626.478,732.043,-13.642,227.202,211.015,137.142,78.543,94.463,166.348,84.677,761.163,-26.472,338.055,186.959,228.639,96.513,173.961,200.54,687.236,-2737.454,843.178,-42.816,119.329,738.539,1488.783,381.469,4352.0,0.0,0.0,0,1688564273.9632,2023-07-05 15:37:53,Rest
102,0,131.775,133.618,84.112,111.379,316.968,139.109,-638.659,720.04,-17.214,215.704,197.484,125.222,65.657,85.147,153.886,65.125,758.865,-42.84,331.57,175.502,218.676,84.634,162.004,190.605,682.963,-2745.987,831.577,-51.482,108.963,721.919,1456.043,367.767,4096.0,0.0,0.0,0,1688564273.9709,2023-07-05 15:37:53,Rest
103,0,139.328,135.021,87.614,119.465,321.774,139.994,-635.971,716.759,-12.074,212.927,198.311,129.195,67.64,89.16,159.368,64.035,771.938,-36.137,338.923,192.232,202.064,85.574,167.99,188.366,666.398,-2746.827,830.745,-55.529,113.465,725.296,1439.73,373.547,4224.0,0.0,0.0,0,1688564273.9786,2023-07-05 15:37:53,Rest
104,0,151.996,147.181,103.92,131.641,335.285,152.15,-620.478,720.14,-6.939,223.985,212.458,140.337,81.917,102.391,162.794,67.557,786.023,-21.244,351.392,207.922,197.763,93.685,180.629,195.35,658.56,-2737.933,840.161,-46.764,126.672,731.23,1435.729,388.543,4736.0,0.0,0.0,0,1688564273.9864,2023-07-05 15:37:53,Rest
105,0,148.258,147.034,95.619,124.849,336.487,150.973,-622.931,713.272,-15.129,226.323,210.708,137.123,83.885,102.289,152.898,55.706,784.725,-26.858,353.089,196.443,208.324,92.567,174.813,197.203,664.561,-2732.121,845.468,-41.594,126.545,722.815,1421.486,385.08,4096.0,0.0,0.0,0,1688564273.9941,2023-07-05 15:37:53,Rest
106,0,147.597,145.35,92.45,119.601,334.101,145.699,-628.456,710.51,-18.188,219.949,202.813,135.449,75.604,94.502,150.696,48.991,780.866,-29.393,354.786,192.66,221.436,91.449,172.077,201.617,668.507,-2726.827,853.332,-38.991,123.857,720.555,1413.916,385.72,3840.0,0.0,0.0,0,1688564274.002,2023-07-05 15:37:54,Rest
107,0,155.647,151.353,103.116,127.166,340.427,148.115,-620.143,714.923,-8.948,216.655,204.147,138.387,69.893,90.309,155.668,52.528,782.647,-20.142,360.066,206.3,220.189,91.87,178.053,206.538,662.716,-2716.928,858.114,-34.854,129.369,722.396,1409.429,400.191,3968.0,0.0,0.0,0,1688564274.0097,2023-07-05 15:37:54,Rest
108,0,147.294,148.64,98.402,127.551,345.209,146.942,-619.523,712.671,-8.427,216.438,203.431,135.175,72.384,93.292,152.951,49.914,784.426,-20.122,361.243,211.217,215.871,87.68,174.288,202.746,655.905,-2712.674,847.522,-34.307,128.215,715.013,1390.088,400.816,4096.0,0.0,0.0,0,1688564274.0175,2023-07-05 15:37:54,Rest
109,0,131.778,143.88,91.131,121.276,341.278,142.697,-624.539,705.81,-16.103,219.296,204.764,135.552,84.095,109.081,150.236,45.253,786.203,-20.614,363.443,205.882,222.315,87.592,173.089,201.518,653.712,-2714.572,842.576,-34.785,124.5,707.638,1367.694,389.656,4224.0,0.0,0.0,0,1688564274.0252,2023-07-05 15:37:54,Rest
110,0,122.937,145.273,95.139,120.643,336.838,143.579,-620.84,700.494,-14.037,221.125,209.17,137.466,87.085,121.779,150.598,42.134,786.954,-15.47,372.301,206.701,227.728,91.091,175.99,205.415,643.325,-2711.858,851.467,-29.114,127.45,701.808,1350.957,390.291,4096.0,0.0,0.0,0,1688564274.033,2023-07-05 15:37:54,Rest
111,0,118.203,143.079,92.482,118.473,336.502,143.435,-616.633,694.158,-9.413,214.757,204.35,135.279,77.776,115.51,148.911,37.993,787.191,-17.504,375.003,215.204,230.062,88.438,171.716,205.21,625.775,-2706.584,849.591,-23.45,128.859,693.421,1330.65,396.561,4224.0,0.0,0.0,0,1688564274.0407,2023-07-05 15:37:54,Rest
112,0,119.622,142.936,88.803,115.793,340.264,142.267,-616.017,689.365,-11.453,208.906,201.584,136.681,77.186,112.32,146.713,33.857,787.941,-19.536,374.116,221.648,238.541,85.276,172.056,204.492,621.563,-2706.439,841.057,-21.89,127.706,688.629,1310.877,394.627,3968.0,0.0,0.0,0,1688564274.0485,2023-07-05 15:37:54,Rest
113,0,121.551,147.404,88.202,117.726,340.948,141.1,-614.376,686.114,-13.49,209.722,207.53,138.081,80.183,117.331,144.005,30.749,786.129,-16.955,377.328,222.451,241.376,85.703,175.983,206.337,622.479,-2708.856,845.851,-18.794,128.603,685.892,1293.684,393.208,4736.0,0.0,0.0,0,1688564274.0562,2023-07-05 15:37:54,Rest
114,0,111.696,148.793,86.065,118.121,340.095,140.447,-614.274,683.379,-11.428,209.0,204.249,134.869,73.443,112.091,141.811,29.694,787.904,-16.425,380.536,229.401,240.11,88.691,174.27,210.742,613.659,-2708.709,853.715,-11.603,128.986,682.132,1279.071,398.45,4096.0,0.0,0.0,0,1688564274.0641,2023-07-05 15:37:54,Rest
115,0,100.313,157.354,95.2,123.638,346.415,144.917,-610.074,682.696,-6.805,211.865,201.483,143.956,74.906,110.442,143.719,27.103,801.973,-9.749,384.254,243.004,253.19,96.799,179.731,220.265,615.095,-2701.389,861.058,2.241,137.054,684.011,1272.669,405.737,4992.0,0.0,0.0,0,1688564274.0718,2023-07-05 15:37:54,Rest
116,0,97.139,173.078,108.937,135.81,355.29,152.457,-600.242,686.111,-2.7,216.776,212.04,155.082,85.077,118.016,136.915,17.854,814.491,-3.591,392.067,245.835,266.769,102.85,191.847,225.68,633.948,-2684.343,874.541,18.633,149.212,691.012,1265.76,415.577,3456.0,0.0,0.0,0,1688564274.0796,2023-07-05 15:37:54,Rest
117,0,100.628,175.466,107.804,137.723,358.008,152.304,-596.056,690.036,-2.697,213.486,215.927,151.853,83.968,118.922,122.946,8.615,814.189,-11.272,393.212,244.565,265.478,100.186,191.655,223.405,635.875,-2670.9,881.864,23.225,148.551,691.345,1249.638,426.432,4736.0,0.0,0.0,0,1688564274.0873,2023-07-05 15:37:54,Rest
118,0,103.089,165.557,103.598,130.413,354.064,147.541,-599.046,682.174,-3.719,209.174,208.538,146.578,79.785,117.267,122.311,5.532,807.739,-15.36,387.696,248.418,257.528,94.45,183.779,219.083,612.185,-2672.328,871.248,17.566,142.255,679.896,1231.994,422.932,5376.0,0.0,0.0,0,1688564274.0951,2023-07-05 15:37:54,Rest
119,0,91.715,155.145,95.809,121.573,340.902,141.246,-606.131,662.536,-7.814,206.403,201.158,141.821,80.218,121.248,124.75,-0.621,800.784,-13.295,383.722,240.485,243.95,85.134,177.447,207.081,590.056,-2684.0,851.422,11.401,139.039,657.187,1205.147,403.041,4608.0,0.0,0.0,0,1688564274.1028,2023-07-05 15:37:54,Rest
120,0,78.304,144.232,78.295,107.62,326.729,134.445,-614.234,645.992,-15.491,195.438,193.272,131.945,78.088,122.663,115.403,-8.817,795.885,-16.868,380.264,224.876,234.485,73.266,170.61,192.529,577.683,-2694.636,835.201,2.68,132.24,635.525,1171.666,389.831,4096.0,1073741824.0,0.0,0,1688564274.1106,2023-07-05 15:37:54,Rest
121,0,85.91,142.038,74.631,102.389,325.378,132.261,-612.083,638.174,-15.988,184.484,189.492,131.814,75.961,123.565,116.313,-8.296,796.626,-12.753,380.396,231.311,239.373,70.119,170.951,195.411,569.421,-2693.991,829.755,1.653,130.058,629.766,1153.589,393.539,4096.0,0.0,0.0,0,1688564274.1183,2023-07-05 15:37:54,Rest
122,0,91.459,142.921,78.142,109.459,327.102,132.129,-609.934,631.9,-14.435,184.3,186.741,133.219,69.737,123.442,127.467,-2.14,793.268,-3.006,384.114,244.912,238.109,71.586,170.78,198.289,561.679,-2690.784,824.314,8.311,133.514,625.55,1139.115,390.072,4352.0,0.0,0.0,0,1688564274.1262,2023-07-05 15:37:54,Rest
123,0,75.999,129.97,60.646,102.177,313.967,124.824,-623.157,622.047,-22.105,184.115,174.772,120.278,56.348,115.634,125.803,-2.651,779.154,-11.712,379.632,235.958,226.601,61.78,160.363,174.524,544.724,-2709.611,804.022,1.131,123.647,601.871,1105.7,369.702,4352.0,1073741824.0,0.0,0,1688564274.1339,2023-07-05 15:37:54,Rest
124,0,70.8,120.619,45.728,86.706,302.894,117.527,-630.218,608.105,-28.231,178.296,167.424,114.01,53.217,111.42,122.091,-7.259,769.666,-18.873,375.154,228.549,229.96,51.472,155.08,156.932,526.248,-2736.103,788.874,-9.629,113.277,580.264,1072.319,356.524,4096.0,1073741824.0,0.0,0,1688564274.1417,2023-07-05 15:37:54,Rest
125,0,87.123,136.892,62.076,96.353,318.985,125.607,-615.243,604.423,-22.567,178.118,178.528,126.191,60.849,114.894,128.629,-4.178,777.093,-0.923,390.148,250.862,244.587,62.692,163.634,171.631,526.234,-2723.12,804.991,7.799,126.484,588.906,1074.833,371.537,4352.0,0.0,0.0,0,1688564274.1494,2023-07-05 15:37:54,Rest
126,0,102.405,162.883,89.166,122.384,347.356,145.973,-597.21,617.651,-15.372,185.112,193.719,141.434,67.96,115.804,129.525,4.024,788.611,15.472,409.738,277.252,257.663,85.171,176.79,192.464,540.053,-2687.609,835.437,40.579,147.874,610.346,1085.029,403.953,4224.0,2315255808.0,0.0,0,1688564274.1572,2023-07-05 15:37:54,Rest
127,0,111.524,176.04,102.909,136.094,361.353,157.098,-589.952,624.205,-14.844,190.05,200.697,149.49,75.577,116.713,122.223,5.556,785.774,12.895,413.426,274.925,270.213,95.332,187.884,202.006,543.099,-2662.38,849.971,57.445,156.436,616.908,1076.772,421.992,4352.0,0.0,0.0,0,1688564274.1649,2023-07-05 15:37:54,Rest
0,0,108.338,170.741,99.733,133.396,353.819,150.793,-591.412,609.749,-23.026,187.81,199.472,145.754,78.063,120.182,119.027,2.989,774.742,9.296,408.402,257.232,269.43,87.039,185.135,199.242,530.773,-2668.939,838.362,54.826,151.156,603.996,1053.154,410.3,0.0,0.0,221.0,0,1688564274.1727,2023-07-05 15:37:54,Rest
1,0,94.91,155.713,86.825,124.041,338.608,141.933,-598.505,594.794,-31.2,187.623,191.075,135.874,72.349,124.161,123.006,7.085,767.819,15.434,407.994,253.388,259.939,75.681,173.167,183.674,516.922,-2679.591,812.933,43.5,140.246,583.924,1021.362,392.471,0.0,0.0,224.0,0,1688564274.1804,2023-07-05 15:37:54,Rest
2,0,94.815,148.385,79.566,116.233,331.097,140.254,-601.493,589.077,-31.169,192.558,187.298,135.739,74.326,135.82,129.031,11.689,765.002,22.591,411.172,266.967,271.974,74.581,171.969,176.83,508.72,-2675.374,797.263,40.895,139.594,571.557,994.725,391.566,0.0,0.0,211.0,0,1688564274.1882,2023-07-05 15:37:54,Rest
3,0,104.967,151.823,81.024,116.117,332.816,142.163,-596.28,580.803,-29.601,189.804,194.283,140.726,85.523,143.881,130.439,10.652,764.75,28.204,414.859,274.897,296.293,78.605,179.482,184.338,500.527,-2666.551,796.466,50.076,147.139,567.912,975.287,393.736,0.0,0.0,218.0,0,1688564274.196,2023-07-05 15:37:54,Rest
4,0,108.448,155.769,84.016,119.074,338.63,145.607,-591.073,575.099,-27.01,185.003,197.675,142.634,87.487,138.101,130.308,13.715,766.546,34.323,419.567,272.573,298.559,83.137,180.327,183.641,497.977,-2663.372,797.719,56.686,148.016,562.733,956.381,392.318,0.0,0.0,145.0,0,1688564274.2037,2023-07-05 15:37:54,Rest
5,0,113.462,164.835,91.617,127.664,348.026,152.634,-587.921,576.061,-19.298,190.454,194.916,147.103,84.325,133.865,132.227,20.362,765.267,37.875,427.857,272.3,293.137,91.251,182.708,183.97,504.651,-2656.098,801.532,63.289,151.455,562.17,945.691,401.659,0.0,0.0,222.0,0,1688564274.2115,2023-07-05 15:37:54,Rest
6,0,122.058,179.015,104.333,138.295,359.973,159.654,-582.21,574.46,-16.205,193.337,198.819,153.103,85.265,136.293,133.632,21.878,760.404,37.325,434.601,277.151,298.991,96.283,191.235,194.544,504.659,-2644.22,807.39,78.595,163.086,567.243,938.598,419.701,0.0,0.0,221.0,0,1688564274.2192,2023-07-05 15:37:54,Rest
7,0,122.448,181.397,112.426,141.743,364.224,164.105,-575.48,568.25,-19.263,186.484,201.694,152.95,82.106,131.033,132.474,19.807,759.643,31.652,433.142,277.386,293.057,89.527,192.58,193.838,489.81,-2646.187,801.46,84.152,167.534,563.09,919.216,427.478,0.0,0.0,221.0,0,1688564274.227,2023-07-05 15:37:54,Rest
8,0,118.74,175.581,114.875,140.064,362.323,161.891,-576.441,559.485,-18.731,183.224,193.296,149.211,70.241,117.582,124.657,11.59,756.834,20.862,423.488,265.838,268.686,78.679,186.24,176.225,475.488,-2656.348,785.801,77.408,163.268,550.231,895.243,427.05,0.0,0.0,205.0,0,1688564274.2347,2023-07-05 15:37:54,Rest
9,0,118.621,180.528,122.957,142.998,363.497,159.168,-583.037,549.704,-18.712,184.577,187.467,148.037,59.412,106.194,110.187,-1.741,753.516,8.546,415.892,250.203,255.609,71.428,185.541,164.778,463.229,-2655.229,776.819,76.818,166.178,545.583,878.978,434.82,0.0,0.0,193.0,0,1688564274.2425,2023-07-05 15:37:54,Rest
10,0,120.039,192.131,141.789,149.515,371.331,166.181,-579.38,538.908,-20.743,181.831,192.915,151.987,60.89,105.575,104.954,-4.813,761.472,4.439,420.599,247.391,260.989,73.405,192.016,165.638,454.057,-2651.037,778.603,84.426,175.746,545.037,864.267,454.878,0.0,0.0,210.0,0,1688564274.2503,2023-07-05 15:37:54,Rest
11,0,125.042,196.037,157.017,154.489,379.156,175.237,-569.579,526.586,-20.722,174.989,195.796,158.496,66.977,109.568,109.972,1.852,767.37,8.02,427.351,256.878,260.728,81.017,197.459,164.96,447.967,-2655.046,774.751,90.489,183.767,540.394,846.497,469.28,0.0,0.0,213.0,0,1688564274.2581,2023-07-05 15:37:54,Rest
12,0,133.627,201.476,167.106,162.531,385.437,179.16,-564.399,519.912,-20.702,165.593,194.576,161.923,67.422,106.385,113.448,5.948,758.406,13.135,426.923,257.133,254.32,83.497,201.36,158.648,431.125,-2662.125,758.607,96.034,189.731,540.366,825.158,474.958,0.0,0.0,216.0,0,1688564274.2658,2023-07-05 15:37:54,Rest
13,0,141.69,215.619,188.968,177.226,398.372,190.764,-554.613,524.003,-18.119,169.526,203.603,169.958,79.138,114.475,121.02,17.213,755.598,23.881,435.206,256.876,260.725,90.586,213.967,157.464,414.3,-2664.586,752.725,107.209,201.325,546.998,804.865,493.951,0.0,0.0,218.0,0,1688564274.2736,2023-07-05 15:37:54,Rest
14,0,150.257,226.675,212.857,192.93,413.343,206.454,-538.177,518.868,-15.027,181.652,213.133,182.084,98.014,136.902,136.78,37.688,759.454,43.325,452.189,268.402,269.174,104.328,227.585,161.918,413.374,-2660.896,760.682,119.909,216.492,548.5,791.253,517.023,0.0,0.0,207.0,0,1688564274.2813,2023-07-05 15:37:54,Rest
15,0,153.181,226.448,215.718,191.712,413.442,206.248,-535.589,496.832,-18.598,174.298,206.772,183.951,94.33,134.204,141.254,43.286,748.448,48.404,453.274,267.622,261.732,105.76,224.284,157.657,407.325,-2659.772,753.261,123.888,218.325,540.267,769.457,520.092,0.0,0.0,215.0,0,1688564274.2891,2023-07-05 15:37:54,Rest
16,0,151.491,224.685,213.966,185.885,407.905,201.943,-542.226,485.065,-19.604,161.316,199.393,179.668,80.403,115.627,135.99,42.218,733.867,38.11,448.21,255.571,250.2,97.97,218.936,149.303,393.085,-2663.773,736.114,123.764,215.033,531.017,744.609,519.06,0.0,0.0,208.0,0,1688564274.2969,2023-07-05 15:37:54,Rest
17,0,157.487,231.632,225.535,197.482,417.231,210.963,-534.512,495.338,-12.925,167.814,206.366,185.124,85.446,121.659,139.44,54.471,729.547,40.633,455.958,262.488,256.097,102.995,228.963,160.936,393.205,-2655.473,740.501,132.862,224.04,531.511,739.253,531.348,0.0,0.0,211.0,0,1688564274.3047,2023-07-05 15:37:54,Rest
18,0,163.99,240.622,228.383,203.945,425.011,216.387,-526.292,499.453,-15.986,169.696,209.233,189.55,89.459,127.685,149.547,65.687,720.108,48.277,462.162,270.422,271.723,109.04,234.37,181.78,396.91,-2635.399,754.105,145.536,229.451,534.565,729.805,534.403,0.0,0.0,197.0,0,1688564274.3125,2023-07-05 15:37:54,Rest
19,0,161.264,235.771,214.322,191.958,416.389,210.023,-532.426,485.122,-19.044,164.403,198.778,185.262,79.123,112.7,151.959,68.183,705.044,38.495,458.114,260.418,277.599,104.32,223.377,184.672,391.39,-2629.69,749.252,148.977,223.586,522.248,696.8,521.573,0.0,1073741824.0,209.0,0,1688564274.3203,2023-07-05 15:37:54,Rest
20,0,156.492,224.776,201.3,192.278,408.288,205.715,-538.041,473.878,-10.828,177.046,192.944,182.003,75.458,111.563,151.294,73.238,700.752,33.333,456.631,265.793,274.247,101.142,218.543,177.827,386.9,-2634.233,733.646,148.316,219.264,502.77,663.828,504.146,0.0,1073741824.0,219.0,0,1688564274.328,2023-07-05 15:37:54,Rest
21,0,152.749,220.966,188.804,196.697,404.293,200.898,-540.065,474.429,-9.28,181.48,194.8,179.259,83.579,124.771,155.754,77.776,704.15,43.546,457.199,281.921,274.998,101.041,216.787,179.699,380.878,-2627.5,724.203,148.68,214.946,492.021,650.356,480.588,0.0,0.0,206.0,0,1688564274.3358,2023-07-05 15:37:54,Rest
22,0,149.011,217.671,170.684,178.057,394.155,193.013,-544.136,469.856,-15.418,166.441,196.142,175.494,91.181,128.233,162.258,77.698,706.52,51.187,459.816,275.491,283.944,104.526,209.911,187.204,377.423,-2614.114,725.528,152.629,209.608,481.795,639.46,460.127,0.0,0.0,201.0,0,1688564274.3435,2023-07-05 15:37:54,Rest
23,0,148.349,209.768,155.144,163.534,384.539,190.258,-541.542,455.042,-12.841,168.324,194.921,174.806,95.188,129.641,162.608,76.596,702.227,56.259,463.455,270.605,294.419,109.544,208.676,192.652,384.218,-2608.939,724.291,158.625,208.886,465.432,621.402,446.347,0.0,0.0,211.0,0,1688564274.3513,2023-07-05 15:37:54,Rest
24,0,143.078,195.726,138.083,162.859,371.86,181.359,-543.562,441.779,-12.316,174.304,183.456,168.996,91.506,132.073,160.909,69.859,696.402,64.4,459.917,287.241,288.489,101.238,202.32,182.213,374.1,-2615.551,701.537,153.855,202.53,447.036,594.652,419.261,0.0,0.0,207.0,0,1688564274.359,2023-07-05 15:37:54,Rest
25,0,131.152,177.088,116.428,149.376,351.508,164.783,-559.925,428.017,-16.915,160.809,168.415,154.994,81.169,126.818,161.26,61.592,698.267,67.409,454.847,292.076,267.708,88.329,185.211,166.149,348.623,-2619.083,677.782,141.406,189.519,428.146,566.393,389.64,0.0,0.0,210.0,0,1688564274.3667,2023-07-05 15:37:54,Rest
26,0,124.36,170.25,105.553,138.98,341.935,162.569,-545.02,414.269,-14.336,157.575,161.075,149.716,76.989,121.568,151.365,43.6,665.293,65.293,454.392,282.051,268.977,89.777,181.44,174.18,349.299,-2606.73,679.665,145.875,186.768,414.398,548.408,381.566,0.0,65536.0,190.0,0,1688564274.3746,2023-07-05 15:37:54,Rest
27,0,123.724,176.74,103.398,143.964,345.179,167.018,-511.688,408.732,-14.834,166.126,153.229,154.177,82.035,121.959,124.574,11.281,632.353,63.69,451.888,280.744,290.225,94.811,184.332,193.474,363.294,-2598.488,684.109,158.025,188.119,410.909,535.565,377.086,0.0,98368.0,206.0,0,1688564274.3823,2023-07-05 15:37:54,Rest
28,0,126.674,178.613,99.196,145.357,345.346,164.801,-492.221,405.249,-17.381,161.862,144.366,155.048,85.027,126.448,116.764,-2.563,617.888,67.725,453.998,284.562,295.57,95.228,181.074,194.305,359.345,-2598.451,676.252,161.453,188.443,406.912,522.221,366.462,0.0,0.0,209.0,0,1688564274.3901,2023-07-05 15:37:54,Rest
29,0,132.183,178.434,97.56,144.187,346.538,168.735,-524.004,400.233,-9.167,158.114,148.32,155.917,88.016,135.03,149.435,30.227,650.058,77.904,463.79,290.425,293.226,103.33,186.528,197.184,356.424,-2582.533,676.088,169.488,192.865,401.382,515.039,368.657,0.0,114752.0,211.0,0,1688564274.3978,2023-07-05 15:37:54,Rest
30,0,131.026,184.916,97.975,147.629,347.216,173.177,-555.755,397.784,-1.985,164.103,154.832,160.372,92.026,136.432,170.803,62.985,682.195,80.387,464.863,292.184,304.715,108.35,190.44,208.258,361.19,-2567.655,674.388,178.54,192.672,397.907,505.815,370.85,0.0,98368.0,197.0,0,1688564274.4056,2023-07-05 15:37:54,Rest
31,0,125.772,185.755,95.828,146.969,344.307,167.881,-522.412,392.775,-4.545,167.525,149.554,159.187,91.934,131.173,152.189,30.647,649.238,74.159,460.3,284.719,313.12,104.655,181.028,204.464,352.12,-2571.235,661.93,177.337,190.943,388.288,488.915,358.696,0.0,98368.0,220.0,0,1688564274.4133,2023-07-05 15:37:54,Rest
32,0,130.257,185.057,97.269,150.921,347.036,168.738,-499.86,387.259,-1.466,170.944,148.892,160.565,96.453,136.677,146.914,20.37,621.436,83.307,468.549,289.045,318.442,111.723,185.97,205.284,347.157,-2561.491,665.367,184.845,196.899,382.776,477.668,353.727,3968.0,0.0,0.0,0,1688564274.4211,2023-07-05 15:37:54,Rest
33,0,140.373,194.606,98.709,156.405,349.763,177.79,-521.902,387.897,6.22,173.847,160.014,169.114,109.164,148.836,169.308,53.137,653.603,100.642,478.839,302.588,330.419,125.443,198.592,225.571,358.593,-2542.024,676.485,202.078,203.875,387.516,471.555,358.496,4224.0,98304.0,0.0,0,1688564274.4288,2023-07-05 15:37:54,Rest
34,0,141.257,198.51,98.098,154.2,345.827,181.199,-503.961,385.972,7.238,171.112,167.027,172.018,114.178,154.835,169.139,48.473,631.432,103.615,476.311,300.749,335.212,126.855,196.344,231.493,354.648,-2542.043,669.148,205.975,206.745,384.567,460.837,355.064,4224.0,0.0,0.0,0,1688564274.4367,2023-07-05 15:37:54,Rest
35,0,137.529,194.213,99.536,155.07,348.043,178.968,-470.67,376.364,9.792,171.965,162.761,169.797,112.527,155.704,154.113,24.346,598.525,104.536,475.834,294.3,333.34,125.191,193.074,226.138,335.851,-2543.6,658.745,203.207,207.563,371.375,449.105,347.537,4480.0,65600.0,0.0,0,1688564274.4444,2023-07-05 15:37:54,Rest
36,0,135.855,196.58,96.875,156.452,348.207,176.74,-496.839,364.717,14.906,170.256,156.451,169.627,110.878,149.913,161.643,44.302,630.714,113.653,480.481,299.129,330.957,123.017,193.393,228.986,328.342,-2535.421,658.086,206.078,205.306,363.831,433.799,341.041,3968.0,65536.0,0.0,0,1688564274.4522,2023-07-05 15:37:54,Rest
37,0,132.133,195.359,88.069,148.611,335.564,174.002,-528.618,353.594,15.403,159.327,151.683,166.384,102.058,141.054,168.654,60.651,662.871,113.027,476.927,298.83,316.282,116.234,187.052,227.22,321.866,-2538.521,646.67,205.359,201.514,353.222,411.336,332.503,4352.0,65600.0,0.0,0,1688564274.4599,2023-07-05 15:37:54,Rest
38,0,125.853,183.381,83.883,144.364,328.568,170.242,-514.257,342.482,12.826,157.119,145.384,158.533,94.783,138.864,159.776,46.758,629.933,100.619,466.716,292.383,307.768,112.019,180.717,220.845,306.175,-2545.204,628.092,203.105,198.239,337.499,391.97,323.974,4224.0,65536.0,0.0,0,1688564274.4677,2023-07-05 15:37:54,Rest
39,0,120.092,177.05,80.725,143.707,326.703,164.948,-509.644,331.893,7.69,159.523,139.603,155.3,96.738,136.676,155.518,41.589,620.082,91.809,460.614,290.554,321.805,110.37,176.951,224.211,294.086,-2541.634,613.12,205.463,193.942,329.989,376.721,315.453,4224.0,0.0,0.0,0,1688564274.4754,2023-07-05 15:37:54,Rest
40,0,119.46,181.483,75.009,141.514,323.302,165.808,-521.43,323.877,4.609,149.63,139.976,158.219,97.666,132.441,154.338,46.158,648.663,92.229,458.104,290.776,325.069,106.674,175.749,223.986,286.62,-2538.58,600.211,206.795,192.724,323.512,357.901,307.453,4608.0,0.0,0.0,0,1688564274.4832,2023-07-05 15:37:54,Rest
41,0,123.951,185.913,78.008,147.008,325.54,170.765,-511.174,324.065,13.826,146.406,145.984,163.696,101.154,136.407,153.159,44.062,646.478,96.748,457.646,290.997,311.424,110.665,179.159,222.738,283.771,-2534.504,594.488,210.686,197.142,312.942,341.149,305.096,4096.0,0.0,0.0,0,1688564274.4909,2023-07-05 15:37:54,Rest
42,0,124.851,187.776,81.004,151.472,325.215,168.545,-504.003,322.204,22.521,153.945,146.35,164.557,105.151,141.393,157.104,46.068,641.22,99.213,457.701,291.219,310.601,115.165,178.98,228.663,290.148,-2526.335,595.943,218.672,198.994,306.994,339.271,302.742,3840.0,0.0,0.0,0,1688564274.4988,2023-07-05 15:37:54,Rest
43,0,124.727,190.15,76.824,144.66,319.767,167.864,-509.647,307.025,17.376,147.643,141.081,161.319,101.46,140.74,156.435,47.046,655.948,100.138,457.756,288.878,313.364,114.538,177.777,227.409,289.857,-2515.611,595.347,225.114,196.746,302.588,342.006,297.316,3968.0,0.0,0.0,0,1688564274.5065,2023-07-05 15:37:54,Rest
44,0,134.336,194.57,81.358,146.053,325.594,174.869,-500.94,295.447,15.821,140.323,142.476,166.793,105.457,141.111,149.618,43.413,661.44,106.698,461.909,288.077,308.44,121.083,183.234,222.059,280.346,-2500.8,593.727,232.573,200.135,298.699,334.491,302.654,4096.0,0.0,0.0,0,1688564274.5143,2023-07-05 15:37:54,Rest
45,0,141.374,196.937,89.474,153.079,327.83,175.719,-490.705,293.615,20.928,148.38,150.019,173.798,117.135,140.97,149.469,46.443,660.266,115.3,467.082,284.715,316.841,130.184,185.1,229.009,281.09,-2492.152,594.158,241.562,205.058,295.839,317.763,308.499,4224.0,0.0,0.0,0,1688564274.522,2023-07-05 15:37:54,Rest
46,0,138.159,194.179,83.749,146.778,316.232,173.494,-491.239,284.612,19.371,152.33,150.893,171.063,114.456,141.854,148.295,48.446,661.143,116.21,465.59,276.746,328.307,129.541,180.817,239.026,284.908,-2497.344,589.465,245.419,203.828,285.809,302.588,297.432,4224.0,0.0,0.0,0,1688564274.5297,2023-07-05 15:37:54,Rest
47,0,140.07,194.497,79.054,142.02,314.891,175.369,-488.699,277.155,17.814,146.542,149.718,167.818,112.292,147.86,144.56,45.324,657.92,112.507,464.612,276.469,314.146,127.363,179.611,234.176,274.889,-2494.335,580.166,247.223,203.625,275.277,292.04,286.376,4224.0,0.0,0.0,0,1688564274.5375,2023-07-05 15:37:54,Rest
48,0,141.466,196.352,83.586,149.563,321.236,174.169,-486.673,278.927,22.407,146.395,151.105,171.236,119.352,150.273,149.539,49.377,657.775,113.419,467.734,285.414,293.852,127.235,178.919,217.548,260.782,-2483.131,568.315,248.0,205.982,271.416,278.428,287.627,4224.0,0.0,0.0,0,1688564274.5452,2023-07-05 15:37:54,Rest
49,0,133.128,191.032,81.453,150.95,314.767,171.946,-485.674,269.427,19.311,147.274,146.343,169.528,113.085,143.975,156.049,58.549,653.018,115.868,463.68,285.641,297.144,121.985,178.74,210.159,253.349,-2482.697,554.427,243.654,203.727,260.386,263.805,282.216,4352.0,0.0,0.0,0,1688564274.553,2023-07-05 15:37:54,Rest
50,0,132.995,186.743,74.712,145.676,308.305,172.799,-478.529,252.763,11.607,144.565,140.049,164.236,106.312,142.294,157.43,62.589,639.558,115.239,456.556,278.183,309.655,120.326,179.074,220.707,252.071,-2483.288,547.213,244.435,199.937,248.343,254.832,271.688,4224.0,0.0,0.0,0,1688564274.5608,2023-07-05 15:37:54,Rest
51,0,142.083,192.191,77.199,149.117,313.632,173.651,-473.439,255.584,14.157,148.006,143.495,166.633,114.403,147.788,159.322,63.551,640.455,114.1,456.612,277.393,312.419,125.841,178.383,228.171,251.819,-2471.071,551.276,256.486,203.324,247.582,246.892,273.465,4736.0,0.0,0.0,0,1688564274.5686,2023-07-05 15:37:54,Rest
52,0,146.552,197.122,82.244,157.677,317.929,175.526,-476.04,261.477,23.364,155.031,148.987,173.126,119.924,149.689,159.675,69.123,655.696,115.01,457.18,282.751,307.496,128.277,180.766,222.307,246.956,-2460.915,553.799,268.012,206.706,244.773,235.374,275.753,3584.0,0.0,0.0,0,1688564274.5763,2023-07-05 15:37:54,Rest
53,0,145.381,193.339,80.113,157.007,314.537,173.814,-479.662,244.821,23.853,148.728,145.764,170.904,119.804,149.027,157.978,75.714,658.627,117.457,455.698,280.419,306.164,128.661,182.634,220.548,240.049,-2461.016,547.097,269.281,204.963,235.307,222.331,267.281,4352.0,0.0,0.0,0,1688564274.5841,2023-07-05 15:37:54,Rest
54,0,140.625,185.973,72.86,146.092,306.026,169.029,-480.719,227.67,17.17,131.673,141.52,164.585,120.709,148.366,158.845,77.687,648.746,123.999,457.804,271.429,309.956,129.557,176.304,226.475,237.248,-2463.678,535.279,266.451,201.684,226.362,205.715,255.743,4352.0,0.0,0.0,0,1688564274.5918,2023-07-05 15:37:54,Rest
55,0,136.898,182.201,69.714,139.798,301.109,169.372,-476.653,224.881,16.128,126.418,141.891,165.958,121.613,147.705,158.686,79.659,648.61,131.56,459.396,272.695,311.695,129.427,172.029,227.786,233.936,-2461.727,526.035,268.233,199.945,214.865,188.091,250.364,4480.0,0.0,0.0,0,1688564274.5996,2023-07-05 15:37:54,Rest
56,0,139.835,182.531,68.107,142.732,297.734,168.178,-475.664,220.558,17.649,133.977,140.724,166.816,122.003,146.533,152.38,80.604,652.572,125.28,454.325,276.52,302.674,126.736,170.833,218.336,223.969,-2459.265,515.263,272.576,197.184,202.867,172.021,246.527,4224.0,0.0,0.0,0,1688564274.6073,2023-07-05 15:37:54,Rest
57,0,133.035,175.689,58.305,138.491,288.215,159.813,-482.36,208.042,14.557,130.256,133.923,157.428,113.684,138.701,146.08,75.4,644.235,108.249,445.674,265.998,291.101,118.925,162.465,205.31,212.474,-2463.466,495.28,268.717,191.864,192.93,152.382,235.522,4224.0,0.0,0.0,0,1688564274.6151,2023-07-05 15:37:54,Rest
58,0,122.144,169.365,51.587,129.643,281.779,155.555,-482.39,197.588,14.03,118.855,126.617,151.635,100.763,129.854,143.372,71.739,640.517,97.382,437.544,252.412,286.199,110.609,157.692,202.543,206.626,-2465.101,483.001,263.838,187.573,183.516,133.786,224.528,4352.0,0.0,0.0,0,1688564274.6229,2023-07-05 15:37:54,Rest
59,0,128.682,175.856,56.146,133.612,285.083,157.961,-477.809,195.341,19.139,121.81,128.028,157.631,103.224,129.211,141.179,74.741,653.196,91.137,434.545,249.085,282.327,112.035,162.657,210.025,200.272,-2450.34,489.178,269.721,188.41,180.258,126.48,225.841,4352.0,0.0,0.0,0,1688564274.6307,2023-07-05 15:37:54,Rest
60,0,135.213,176.193,54.041,137.064,281.212,156.778,-479.381,190.022,19.12,126.299,130.461,157.986,107.731,127.545,137.964,75.691,658.691,82.849,433.598,244.738,266.163,112.436,160.445,202.131,187.264,-2441.742,484.078,273.038,187.71,177.004,116.62,223.053,4096.0,0.0,0.0,0,1688564274.6384,2023-07-05 15:37:54,Rest
61,0,128.418,163.721,45.79,127.706,269.148,153.035,-480.438,174.975,13.978,115.927,125.207,150.143,101.476,122.807,136.802,73.566,649.835,83.279,429.066,238.345,244.38,105.663,153.112,184.51,170.683,-2453.133,456.954,265.593,181.374,162.483,94.986,204.9,4352.0,0.0,0.0,0,1688564274.6462,2023-07-05 15:37:54,Rest
62,0,131.363,165.094,46.769,128.603,267.854,153.395,-473.81,167.116,14.476,112.737,125.595,152.555,105.985,126.783,139.226,77.591,649.185,89.343,428.125,241.181,241.574,107.094,156.545,187.912,161.803,-2454.266,447.276,268.401,182.73,151.05,79.01,198.547,4224.0,0.0,0.0,0,1688564274.6539,2023-07-05 15:37:54,Rest
63,0,140.453,178.761,52.869,138.208,273.734,158.364,-468.213,173.096,18.048,119.284,131.104,161.111,113.564,130.242,141.136,84.685,653.147,88.741,433.332,244.526,255.677,116.209,162.024,204.118,166.252,-2437.467,459.124,282.477,191.256,154.997,72.271,209.107,4352.0,0.0,0.0,0,1688564274.6617,2023-07-05 15:37:54,Rest
64,0,138.776,176.533,54.354,133.459,268.337,159.743,-465.696,174.973,20.079,112.505,128.924,158.389,106.278,122.427,142.532,91.261,647.371,88.653,434.435,242.232,262.081,115.068,159.301,202.889,177.869,-2428.37,456.616,287.318,189.016,154.842,61.952,207.361,0.0,0.0,220.0,0,1688564274.6694,2023-07-05 15:37:54,Rest
65,0,136.588,167.135,53.275,126.665,259.359,155.485,-465.23,165.576,20.571,104.196,123.16,154.132,102.073,116.669,142.902,93.731,640.576,92.15,431.952,245.576,258.233,109.318,154.531,194.489,177.691,-2424.404,441.814,284.981,182.167,142.904,47.033,196.907,0.0,0.0,225.0,0,1688564274.6772,2023-07-05 15:37:54,Rest
66,0,137.988,170.042,50.66,130.637,258.075,153.28,-465.277,158.75,21.575,108.19,122.524,155.002,103.508,117.065,135.074,88.514,639.423,90.009,434.081,246.867,256.438,111.77,152.839,194.807,163.168,-2418.394,438.299,286.745,186.083,134.564,32.129,194.149,0.0,0.0,211.0,0,1688564274.685,2023-07-05 15:37:54,Rest
67,0,132.215,171.409,44.974,129.994,256.793,151.59,-461.738,153.981,21.554,105.52,119.84,151.261,98.281,113.362,127.767,86.376,635.71,84.283,432.623,234.837,253.62,110.633,150.125,192.563,151.734,-2421.098,432.225,285.434,184.36,124.696,13.654,187.295,0.0,0.0,221.0,0,1688564274.6928,2023-07-05 15:37:54,Rest
68,0,125.423,158.942,40.83,123.204,249.363,142.729,-462.813,145.118,19.995,97.218,115.622,145.987,96.646,108.638,129.176,91.925,633.025,80.101,427.067,224.356,237.997,100.789,144.339,179.563,137.75,-2423.288,410.788,279.001,173.417,111.763,-3.778,173.787,0.0,0.0,144.0,0,1688564274.7005,2023-07-05 15:37:54,Rest
69,0,128.883,154.172,40.277,124.106,245.528,139.512,-465.937,136.263,19.975,101.219,116.531,149.939,99.623,108.017,130.072,94.395,639.564,78.484,424.078,225.157,219.316,97.614,143.17,171.699,114.559,-2416.766,398.594,279.234,173.756,110.115,-15.045,169.003,0.0,0.0,223.0,0,1688564274.7082,2023-07-05 15:37:54,Rest
70,0,135.927,165.289,43.311,131.154,250.918,149.107,-456.249,133.566,23.541,104.704,119.488,153.888,104.135,108.933,128.405,96.35,646.609,78.405,423.654,222.37,217.047,106.226,148.15,179.212,112.907,-2409.226,404.856,289.201,184.341,113.591,-25.276,170.883,0.0,0.0,222.0,0,1688564274.716,2023-07-05 15:37:54,Rest
71,0,137.84,169.222,46.341,135.633,255.79,153.568,-447.596,132.92,24.03,94.353,119.369,154.246,111.203,111.898,128.789,100.864,648.012,74.741,423.231,217.025,221.953,111.755,150.564,183.131,133.287,-2401.694,400.865,297.109,185.181,103.743,-39.083,169.175,0.0,0.0,221.0,0,1688564274.7238,2023-07-05 15:37:54,Rest
72,0,137.19,162.393,46.295,134.473,250.411,148.292,-450.222,129.713,24.519,91.697,115.151,154.604,106.993,113.323,121.488,98.202,647.364,70.567,422.295,220.394,220.707,109.082,146.827,177.825,135.203,-2392.12,385.095,299.886,178.848,91.856,-51.339,164.908,0.0,0.0,205.0,0,1688564274.7315,2023-07-05 15:37:54,Rest
73,0,138.59,162.231,46.761,132.289,242.988,147.119,-450.284,121.899,29.105,101.339,109.4,151.376,96.64,107.062,114.194,92.468,644.667,73.571,418.287,225.809,226.634,109.997,145.143,182.258,120.723,-2388.191,381.123,302.659,178.669,88.178,-63.583,161.669,0.0,0.0,193.0,0,1688564274.7392,2023-07-05 15:37:54,Rest
74,0,136.914,158.994,43.128,130.108,238.135,144.923,-446.76,109.994,29.588,97.14,106.217,144.564,95.519,97.734,116.641,94.937,637.362,72.985,411.208,216.874,231.53,109.887,142.436,187.711,117.528,-2388.877,379.718,300.308,179.515,78.869,-79.914,153.31,0.0,0.0,209.0,0,1688564274.7471,2023-07-05 15:37:54,Rest
75,0,132.166,149.102,33.863,124.342,229.7,136.581,-448.363,98.101,25.972,77.062,103.037,142.371,92.349,91.488,111.401,93.818,625.454,64.715,405.162,203.337,213.88,101.581,134.609,171.641,112.288,-2393.148,363.969,296.421,173.188,65.982,-97.252,140.862,0.0,0.0,213.0,0,1688564274.7548,2023-07-05 15:37:54,Rest
76,0,132.547,149.977,32.805,120.12,223.834,133.883,-448.427,91.342,27.483,67.764,100.885,143.253,88.159,88.835,102.581,91.675,614.583,63.113,401.683,203.133,196.76,97.893,133.962,155.588,96.806,-2392.804,354.383,297.149,170.966,61.818,-112.524,134.061,0.0,0.0,216.0,0,1688564274.7626,2023-07-05 15:37:54,Rest
77,0,133.951,153.926,37.895,123.073,226.685,135.798,-444.904,85.616,31.042,74.356,103.345,141.573,93.706,91.308,110.163,99.268,611.919,65.612,400.256,208.053,202.711,99.844,135.365,157.994,85.951,-2382.214,352.492,294.803,173.869,58.682,-126.244,133.927,0.0,0.0,218.0,0,1688564274.7703,2023-07-05 15:37:54,Rest
78,0,129.719,147.112,33.759,121.926,225.946,133.613,-444.972,74.772,28.449,78.38,102.217,138.87,94.124,95.315,111.59,103.267,610.282,60.423,395.758,199.648,199.435,95.134,129.082,157.324,81.254,-2375.221,341.893,291.434,170.621,46.328,-137.388,124.571,0.0,0.0,207.0,0,1688564274.7781,2023-07-05 15:37:54,Rest
79,0,128.052,144.915,27.577,115.656,216.498,131.43,-444.014,63.426,24.835,75.228,98.017,136.169,87.37,93.17,102.256,101.627,604.037,54.727,387.677,189.715,179.768,88.891,126.904,146.92,75.025,-2374.383,333.867,294.217,166.864,36.548,-149.034,115.225,0.0,0.0,216.0,0,1688564274.7858,2023-07-05 15:37:54,Rest
80,0,127.924,147.844,29.599,117.077,209.109,131.811,-442.546,54.141,27.371,71.567,95.87,132.959,87.795,86.417,104.716,102.55,599.846,51.599,383.191,188.501,174.465,90.339,128.314,143.187,67.266,-2367.91,331.484,294.435,165.16,30.364,-166.816,114.085,0.0,0.0,206.0,0,1688564274.7936,2023-07-05 15:37:54,Rest
81,0,120.111,135.401,22.909,112.862,202.24,125.019,-449.276,39.23,27.344,65.86,88.601,127.703,83.097,78.134,102.049,98.861,595.66,45.399,379.734,181.652,179.413,85.638,118.964,138.433,56.952,-2370.153,313.221,287.993,157.311,17.013,-191.24,101.676,0.0,0.0,213.0,0,1688564274.8013,2023-07-05 15:37:54,Rest
82,0,109.745,117.335,7.005,95.33,186.156,110.55,-456.511,19.723,8.874,51.961,74.168,117.842,68.669,69.859,88.627,91.077,588.405,38.694,370.645,167.126,170.012,73.257,109.111,123.438,41.526,-2389.812,286.268,279.508,145.882,-0.935,-214.615,76.471,0.0,0.0,197.0,0,1688564274.8092,2023-07-05 15:37:54,Rest
83,0,105.537,114.656,-1.711,84.477,173.162,102.242,-458.104,5.871,-19.825,37.053,67.946,111.576,62.965,64.666,90.588,90.986,583.206,36.606,368.738,163.885,151.912,68.06,106.441,111.019,20.992,-2402.791,273.686,274.105,141.638,-13.229,-232.331,64.612,0.0,0.0,213.0,0,1688564274.8169,2023-07-05 15:37:54,Rest
84,0,109.017,122.738,1.877,89.003,176.575,107.775,-454.059,3.816,-24.415,40.602,74.026,116.588,69.05,66.65,98.182,96.531,582.622,40.668,378.103,175.504,153.297,76.701,106.334,112.957,9.7,-2393.216,275.462,279.979,145.595,-14.24,-240.808,71.719,0.0,0.0,218.0,0,1688564274.8247,2023-07-05 15:37:54,Rest
85,0,119.155,133.374,15.707,100.697,188.182,118.938,-440.798,9.448,-2.362,56.443,83.174,126.717,81.276,75.293,92.448,102.582,585.626,50.361,382.848,185.575,171.074,87.383,116.986,126.677,20.449,-2363.671,283.383,296.605,157.232,-7.566,-234.419,82.918,0.0,0.0,210.0,0,1688564274.8324,2023-07-05 15:37:54,Rest
86,0,127.745,142.462,30.036,112.379,192.605,124.455,-429.598,11.487,10.448,58.948,85.652,131.713,90.929,78.804,87.233,105.041,588.626,55.434,379.391,182.315,170.391,90.882,125.579,131.673,37.847,-2335.692,287.199,304.505,164.76,-4.997,-225.988,87.958,0.0,0.0,209.0,0,1688564274.8402,2023-07-05 15:37:54,Rest
87,0,128.129,141.295,29.494,113.292,189.85,122.793,-430.706,6.865,9.925,49.667,80.956,127.996,82.641,68.991,87.146,102.374,582.402,50.255,374.913,171.887,154.339,89.766,118.281,121.295,39.859,-2332.331,276.153,301.639,160.497,-11.14,-239.082,85.309,0.0,0.0,214.0,0,1688564274.8479,2023-07-05 15:37:54,Rest
88,0,127.489,135.518,24.341,107.543,186.074,120.109,-430.787,2.248,17.6,47.568,78.825,125.818,75.898,67.385,88.595,106.883,577.722,49.693,373.001,167.616,156.234,90.189,114.576,119.637,31.109,-2336.147,264.094,302.874,158.799,-16.764,-256.774,79.588,0.0,0.0,207.0,0,1688564274.8557,2023-07-05 15:37:54,Rest
89,0,129.411,134.871,24.829,107.948,184.864,122.55,-424.209,-1.853,22.193,49.058,85.406,130.816,89.142,81.663,89.531,113.436,582.779,56.303,373.653,167.449,164.787,90.611,120.097,130.788,22.369,-2329.2,262.805,307.695,162.226,-19.821,-260.615,72.336,0.0,0.0,210.0,0,1688564274.8634,2023-07-05 15:37:54,Rest
90,0,128.257,135.248,23.267,105.791,182.117,122.94,-421.735,-10.048,14.487,45.935,88.907,130.685,93.664,83.118,82.782,107.175,582.196,55.734,373.279,164.72,154.376,88.471,116.903,131.682,14.662,-2326.871,259.468,309.949,158.478,-25.437,-272.138,65.092,0.0,0.0,191.0,0,1688564274.8713,2023-07-05 15:37:54,Rest
91,0,127.616,134.088,20.17,99.537,176.812,118.719,-419.264,-17.723,17.546,45.377,81.134,125.431,82.299,74.838,79.113,104.506,577.003,56.191,373.418,169.166,147.561,89.92,114.737,124.89,9.012,-2327.618,250.5,311.176,156.27,-33.608,-294.92,64.002,0.0,0.0,206.0,0,1688564274.879,2023-07-05 15:37:54,Rest
92,0,131.587,133.954,20.15,101.487,173.049,118.6,-415.771,-21.804,28.799,42.77,75.417,126.843,81.705,73.738,84.669,112.598,581.55,61.77,374.582,179.755,154.074,92.391,116.159,122.716,4.905,-2320.679,244.101,310.352,157.139,-41.259,-305.383,61.376,0.0,0.0,209.0,0,1688564274.8868,2023-07-05 15:37:54,Rest
93,0,128.381,129.209,13.982,99.336,167.753,114.895,-423.04,-32.54,25.184,32.481,72.268,123.642,79.574,62.906,77.925,107.363,579.431,52.487,363.449,171.378,146.747,84.102,107.334,116.958,-3.297,-2322.457,233.611,302.357,148.272,-51.464,-313.275,49.02,0.0,0.0,212.0,0,1688564274.8945,2023-07-05 15:37:54,Rest
94,0,118.007,120.371,4.234,86.429,156.315,101.973,-432.863,-48.389,15.937,24.251,60.413,109.686,64.637,48.499,59.404,94.448,565.019,33.991,346.179,152.252,129.694,69.161,97.493,103.521,-12.515,-2327.819,219.033,292.321,138.903,-63.196,-333.966,38.212,0.0,0.0,198.0,0,1688564274.9022,2023-07-05 15:37:54,Rest
95,0,114.303,116.664,0.644,80.195,148.474,97.772,-431.406,-58.587,14.897,20.129,50.106,105.99,63.548,53.573,54.733,91.792,565.991,31.396,342.247,148.001,122.392,66.53,95.346,91.122,-20.7,-2324.467,208.568,289.979,139.276,-70.817,-350.538,31.514,0.0,0.0,221.0,0,1688564274.91,2023-07-05 15:37:54,Rest
96,0,114.701,115.523,-2.943,78.578,147.813,98.699,-427.901,-66.725,15.907,14.473,51.593,108.958,69.632,57.106,51.605,86.064,577.721,33.414,341.905,145.804,112.024,68.513,90.128,82.834,-26.827,-2323.167,199.138,289.689,137.6,-80.48,-357.872,20.212,4096.0,0.0,0.0,0,1688564274.9177,2023-07-05 15:37:54,Rest
97,0,106.901,110.284,-9.088,70.815,140.493,89.379,-431.571,-78.954,16.915,8.311,50.004,101.164,61.366,47.827,40.282,75.732,571.508,27.745,332.853,137.973,95.518,59.223,84.914,77.116,-38.071,-2325.967,185.618,285.301,131.827,-93.72,-370.322,8.921,4096.0,0.0,0.0,0,1688564274.9255,2023-07-05 15:37:54,Rest
98,0,101.159,101.977,-13.689,67.158,130.106,84.166,-433.701,-87.584,17.923,2.667,42.782,94.916,56.693,44.705,38.193,76.169,556.079,26.18,329.959,140.397,92.349,53.016,82.78,75.502,-59.037,-2327.739,175.187,282.454,128.109,-101.31,-393.006,2.764,4096.0,0.0,0.0,0,1688564274.9333,2023-07-05 15:37:54,Rest
99,0,103.107,98.801,-14.7,68.627,128.951,86.644,-432.243,-94.157,17.393,-1.946,43.252,97.894,61.76,46.71,42.766,81.216,550.912,29.74,331.166,142.818,95.843,57.574,79.624,77.988,-72.811,-2328.998,165.79,284.733,125.419,-105.82,-411.568,-2.362,3968.0,0.0,0.0,0,1688564274.9411,2023-07-05 15:37:54,Rest
100,0,101.979,103.313,-11.099,69.583,130.359,83.996,-433.347,-101.235,19.425,2.154,44.745,99.333,60.673,46.663,42.723,86.258,546.263,32.784,327.761,136.015,99.333,61.615,81.081,83.033,-66.59,-2320.521,158.964,291.109,126.831,-109.813,-412.181,-2.872,3968.0,0.0,0.0,0,1688564274.9488,2023-07-05 15:37:54,Rest
101,0,99.828,106.796,-10.064,70.026,128.692,84.424,-431.377,-106.769,22.479,8.3,42.139,99.234,58.564,47.129,47.803,98.979,535.47,38.899,331.019,139.465,114.09,64.627,84.586,87.049,-56.79,-2308.979,162.904,297.99,130.29,-107.654,-408.695,-0.307,4224.0,0.0,0.0,0,1688564274.9566,2023-07-05 15:37:54,Rest
102,0,100.753,107.714,-13.128,67.395,124.465,90.487,-423.773,-112.81,21.432,3.681,43.634,101.696,63.628,48.106,58.001,110.663,529.812,43.471,333.25,144.961,121.661,67.636,81.94,86.962,-53.659,-2307.695,163.765,301.278,131.184,-108.058,-417.508,-5.942,4096.0,0.0,0.0,0,1688564274.9643,2023-07-05 15:37:54,Rest
103,0,105.263,115.803,-5.942,71.426,126.39,92.446,-415.153,-114.234,26.534,3.677,52.812,107.742,68.688,54.206,65.628,119.774,530.307,44.452,330.355,142.255,113.855,71.155,85.956,88.924,-42.335,-2299.752,156.429,308.149,137.201,-111.536,-428.361,-7.986,4096.0,0.0,0.0,0,1688564274.9721,2023-07-05 15:37:54,Rest
104,0,118.478,131.057,11.482,89.285,142.657,102.087,-402.442,-99.775,37.266,23.141,64.03,118.905,77.328,64.398,76.321,140.659,532.338,54.142,339.246,153.383,117.839,84.403,101.752,100.618,-28.972,-2276.96,163.958,326.284,149.359,-104.765,-438.691,7.392,4608.0,0.0,0.0,0,1688564274.9798,2023-07-05 15:37:54,Rest
105,0,129.118,135.024,15.569,98.93,153.785,111.719,-391.794,-92.503,40.814,34.389,68.576,125.447,87.497,68.944,85.466,158.961,530.781,62.284,346.079,163.988,122.332,93.028,106.261,106.153,-36.116,-2266.998,171.99,334.155,152.796,-101.074,-462.331,12.507,4096.0,0.0,0.0,0,1688564274.9876,2023-07-05 15:37:54,Rest
106,0,114.132,120.544,2.234,84.998,136.725,96.238,-399.599,-114.952,35.651,16.423,58.774,115.587,80.237,64.265,78.208,152.142,512.832,44.804,331.389,143.844,100.693,77.054,91.298,90.165,-59.646,-2279.076,146.715,320.5,141.885,-117.367,-486.459,-10.559,3968.0,0.0,0.0,0,1688564274.9954,2023-07-05 15:37:54,Rest
107,0,96.599,107.104,-12.625,67.495,116.096,77.699,-413.031,-138.916,29.979,-3.061,43.858,99.078,65.812,50.88,67.884,142.769,490.802,25.803,319.787,122.184,86.248,60.071,77.886,69.583,-75.98,-2290.116,116.855,311.983,127.91,-135.18,-497.244,-29.504,3968.0,0.0,0.0,0,1688564275.0032,2023-07-05 15:37:55,Rest
108,0,102.138,109.046,-15.687,63.841,115.468,81.72,-412.618,-138.264,28.925,-2.545,41.253,96.417,65.746,40.071,73.964,152.36,492.873,33.974,324.078,125.135,96.408,63.084,77.296,71.05,-77.953,-2283.728,115.713,317.306,126.758,-137.094,-501.357,-26.401,4096.0,0.0,0.0,0,1688564275.0109,2023-07-05 15:37:55,Rest
109,0,105.622,112.011,-8.499,68.9,114.84,87.786,-406.57,-135.052,30.433,1.043,43.773,103.493,68.242,43.105,82.599,160.917,505.188,46.236,325.803,130.646,91.7,68.657,81.83,75.077,-78.387,-2272.735,116.622,317.501,132.779,-137.982,-504.442,-23.3,4096.0,0.0,0.0,0,1688564275.0187,2023-07-05 15:37:55,Rest
110,0,97.319,106.776,-7.978,71.393,107.553,82.062,-406.676,-145.676,30.915,-1.519,39.631,101.853,62.539,44.599,74.832,153.071,500.584,40.554,323.428,124.367,74.19,64.49,80.723,61.17,-86.506,-2273.536,102.673,315.135,130.084,-146.041,-507.524,-30.449,4096.0,0.0,0.0,0,1688564275.0264,2023-07-05 15:37:55,Rest
111,0,98.759,105.644,-14.63,69.272,106.933,78.906,-407.294,-153.727,31.908,-4.079,36.517,95.091,61.451,36.869,65.023,144.721,496.497,34.366,320.03,113.997,78.214,62.376,76.032,54.449,-94.616,-2273.824,93.349,318.406,125.344,-150.505,-515.725,-37.591,4096.0,0.0,0.0,0,1688564275.0342,2023-07-05 15:37:55,Rest
112,0,101.222,110.662,-12.566,69.715,106.826,80.364,-403.301,-153.061,34.438,-4.587,39.042,98.582,66.513,37.857,64.958,145.601,503.685,37.918,314.075,107.735,88.382,66.412,75.956,66.69,-92.985,-2263.866,89.157,322.186,128.804,-149.842,-522.382,-38.066,4224.0,0.0,0.0,0,1688564275.0419,2023-07-05 15:37:55,Rest
113,0,98.047,111.063,-5.381,75.281,105.182,80.284,-398.799,-152.396,37.477,-3.558,40.028,103.094,68.496,42.43,61.819,145.455,499.595,39.417,313.249,108.14,78.048,67.37,79.978,69.185,-90.33,-2255.966,82.92,321.351,131.237,-152.254,-523.397,-38.54,3968.0,0.0,0.0,0,1688564275.0497,2023-07-05 15:37:55,Rest
114,0,96.924,106.342,-7.937,76.23,106.102,77.642,-399.937,-156.854,39.489,-7.141,35.377,95.819,59.206,29.58,49.974,138.65,484.239,32.205,310.886,104.445,61.064,60.13,75.8,57.332,-98.949,-2253.71,72.079,313.345,126.495,-161.323,-533.632,-42.6,4096.0,0.0,0.0,0,1688564275.0575,2023-07-05 15:37:55,Rest
115,0,89.142,102.137,-14.077,68.47,98.311,68.855,-406.709,-165.406,35.351,-23.015,23.046,84.964,40.191,7.521,40.191,131.851,474.533,19.365,296.743,92.045,53.318,49.312,63.941,51.64,-117.293,-2251.969,60.224,303.81,119.709,-170.896,-548.467,-51.267,4224.0,0.0,0.0,0,1688564275.0653,2023-07-05 15:37:55,Rest
116,0,81.369,97.424,-16.112,63.79,87.454,62.639,-401.18,-173.95,29.681,-35.288,14.314,82.83,31.954,-1.708,34.003,126.084,456.64,12.686,289.786,86.318,53.265,46.701,58.754,51.588,-127.422,-2248.692,53.504,302.994,114.466,-174.824,-552.53,-59.925,3584.0,0.0,0.0,0,1688564275.073,2023-07-05 15:37:55,Rest
117,0,88.972,95.79,-17.121,66.8,89.928,66.675,-380.286,-177.875,31.7,-26.543,22.497,85.821,42.681,5.466,28.846,118.273,430.568,17.284,294.619,85.719,56.798,50.753,62.794,50.512,-120.123,-2242.345,48.839,308.327,116.401,-177.21,-553.002,-62.939,3968.0,0.0,0.0,0,1688564275.0807,2023-07-05 15:37:55,Rest
118,0,92.469,94.669,-18.641,66.221,90.351,68.657,-376.832,-185.894,36.279,-16.783,31.183,84.711,50.322,15.707,31.378,120.717,435.261,22.902,294.837,82.56,55.716,51.214,63.243,49.437,-117.441,-2238.054,40.594,309.043,119.87,-180.107,-562.695,-63.9,3584.0,0.0,0.0,0,1688564275.0885,2023-07-05 15:37:55,Rest
119,0,87.766,93.038,-18.11,63.081,83.6,65.515,-394.898,-195.954,36.243,-23.426,28.078,85.651,50.784,19.277,44.667,142.625,467.613,27.49,294.542,84.527,50.537,53.212,62.155,49.387,-127.57,-2236.328,34.405,310.271,118.214,-181.464,-569.817,-69.984,4096.0,65536.0,0.0,0,1688564275.0962,2023-07-05 15:37:55,Rest
120,0,93.314,99.605,-14.505,66.092,87.615,70.06,-397.065,-192.684,36.207,-28.013,31.637,92.737,58.931,23.869,55.381,156.315,476.367,38.221,297.834,89.565,54.073,62.381,67.216,51.387,-123.856,-2224.358,35.908,319.182,119.632,-183.844,-565.661,-69.914,4224.0,0.0,0.0,0,1688564275.1039,2023-07-05 15:37:55,Rest
121,0,94.757,105.14,-13.978,69.612,90.601,74.088,-380.786,-189.418,37.195,-22.35,39.289,94.694,62.458,26.406,53.276,149.498,455.398,40.744,296.511,81.279,61.704,64.88,69.711,54.409,-110.412,-2213.936,35.872,323.474,123.099,-188.271,-563.558,-64.721,4096.0,0.0,0.0,0,1688564275.1117,2023-07-05 15:37:55,Rest
122,0,83.392,95.814,-18.063,65.444,80.777,67.354,-382.967,-199.474,37.158,-21.303,31.053,88.451,56.248,18.183,49.124,149.861,450.844,31.994,291.092,70.951,56.519,56.618,62.981,51.793,-120.035,-2218.383,28.664,318.027,118.365,-190.644,-574.265,-73.366,4224.0,0.0,0.0,0,1688564275.1195,2023-07-05 15:37:55,Rest
123,0,83.308,89.57,-19.582,64.866,77.11,63.701,-392.83,-205.935,36.608,-23.331,21.801,86.314,53.118,13.554,52.149,156.371,460.64,31.962,288.752,76.003,43.142,56.049,60.869,40.983,-143.482,-2218.213,19.926,317.197,115.685,-193.015,-585.474,-82.514,4224.0,0.0,0.0,0,1688564275.1273,2023-07-05 15:37:55,Rest
124,0,89.885,96.141,-14.951,67.875,81.131,67.736,-383.216,-205.729,36.059,-18.184,26.39,89.301,49.478,15.59,52.609,152.117,456.081,36.029,288.463,79.513,39.001,62.141,65.931,38.381,-147.949,-2206.774,17.344,322.515,120.18,-195.896,-585.401,-75.771,4096.0,0.0,0.0,0,1688564275.135,2023-07-05 15:37:55,Rest
125,0,88.258,102.192,-9.301,70.881,84.636,71.766,-372.586,-210.134,38.585,-14.58,28.925,90.749,44.306,9.939,46.921,148.891,452.551,28.82,287.15,69.7,48.695,65.152,68.426,48.076,-134.481,-2198.931,21.938,328.853,123.134,-193.138,-580.717,-70.572,4224.0,0.0,0.0,0,1688564275.1428,2023-07-05 15:37:55,Rest
126,0,90.219,105.164,-6.73,78.495,90.7,75.281,-373.239,-206.338,45.719,-17.127,30.433,93.732,51.946,8.392,41.751,151.303,461.832,22.644,284.813,65.02,54.794,70.21,68.87,54.688,-121.026,-2194.683,23.453,335.184,124.035,-187.822,-583.723,-72.551,4096.0,0.0,0.0,0,1688564275.1505,2023-07-05 15:37:55,Rest
127,0,92.69,109.157,-8.26,81.49,92.146,76.23,-365.693,-196.91,48.235,-16.598,37.062,96.712,60.091,17.093,42.222,149.615,464.956,27.744,284.016,70.078,43.981,72.702,71.363,49.51,-121.93,-2188.902,14.208,335.361,126.985,-191.733,-589.799,-75.04,4224.0,0.0,0.0,0,1688564275.1583,2023-07-05 15:37:55,Rest
0,0,88.499,105.974,-11.326,72.7,82.32,74.617,-357.13,-202.861,45.625,-14.019,37.025,95.591,57.469,18.1,50.377,155.101,465.516,31.815,285.781,72.057,33.691,69.043,71.804,44.85,-135.128,-2186.201,5.997,328.878,125.321,-199.226,-590.746,-83.162,0.0,0.0,221.0,0,1688564275.166,2023-07-05 15:37:55,Rest
1,0,85.337,98.183,-16.438,66.992,75.065,71.468,-362.921,-213.416,45.067,-18.104,31.353,91.909,54.85,16.545,58.523,160.069,470.174,30.759,282.422,74.034,37.756,64.875,69.171,39.682,-143.19,-2185.552,2.405,321.889,117.511,-206.199,-596.815,-93.837,0.0,0.0,227.0,0,1688564275.1739,2023-07-05 15:37:55,Rest
2,0,80.641,88.864,-26.155,65.9,67.818,61.663,-369.218,-217.814,43.485,-27.82,26.711,86.694,54.796,20.627,51.292,149.15,462.019,30.216,274.455,73.96,40.792,57.638,61.929,30.933,-147.145,-2186.44,-8.356,313.37,109.197,-216.751,-612.1,-105.526,0.0,0.0,211.0,0,1688564275.1816,2023-07-05 15:37:55,Rest
3,0,71.851,80.066,-31.764,60.711,55.455,51.868,-369.873,-224.768,40.88,-29.841,22.073,82.509,53.716,21.119,46.63,143.366,452.335,35.308,274.18,69.275,36.14,51.433,55.207,26.292,-156.732,-2188.352,-20.643,307.421,106.014,-226.268,-617.636,-122.327,0.0,0.0,224.0,0,1688564275.1894,2023-07-05 15:37:55,Rest
4,0,76.39,81.01,-29.683,60.65,55.911,55.402,-368.479,-226.593,40.327,-21.614,26.15,85.5,58.273,21.61,53.756,150.907,457.518,40.908,277.492,67.157,38.666,58.041,57.713,28.314,-160.161,-2185.652,-26.77,309.675,108.982,-222.968,-608.821,-123.742,0.0,0.0,143.0,0,1688564275.1971,2023-07-05 15:37:55,Rest
5,0,89.633,92.712,-22.994,70.836,70.2,63.031,-361.45,-217.657,43.872,-14.42,35.345,92.075,62.313,23.638,49.604,151.781,457.573,38.818,277.727,64.016,41.189,66.18,65.34,32.897,-152.829,-2173.22,-30.33,316.026,114.508,-215.06,-601.04,-108.249,0.0,0.0,223.0,0,1688564275.2049,2023-07-05 15:37:55,Rest
6,0,100.815,108.501,-7.602,84.085,84.475,70.14,-349.306,-209.242,51.001,-11.332,39.408,100.18,60.714,16.954,43.919,150.092,452.505,34.681,277.449,60.366,35.512,70.725,71.935,45.672,-149.09,-2155.165,-20.053,326.981,123.103,-206.648,-593.266,-97.894,0.0,0.0,221.0,0,1688564275.2126,2023-07-05 15:37:55,Rest
7,0,108.398,119.151,7.263,94.247,95.149,79.804,-341.272,-200.836,55.561,-4.148,45.004,109.813,63.727,9.765,52.584,155.577,459.737,36.183,279.221,65.428,32.915,82.437,78.523,58.434,-145.867,-2140.715,-1.59,341.51,134.25,-194.659,-582.427,-90.112,0.0,0.0,221.0,0,1688564275.2204,2023-07-05 15:37:55,Rest
8,0,106.241,120.569,5.719,97.227,97.103,80.749,-337.857,-194.487,55.505,-1.583,50.595,111.753,66.225,6.681,46.384,151.836,459.789,32.561,275.868,60.24,32.37,85.941,77.932,59.912,-139.061,-2134.988,-2.613,344.755,134.628,-191.39,-582.357,-84.899,0.0,0.0,206.0,0,1688564275.2281,2023-07-05 15:37:55,Rest
9,0,99.987,116.35,-1.459,95.08,89.833,72.471,-339.568,-198.904,53.913,-10.803,43.884,105.493,59.499,0.527,32.505,142.462,446.01,24.331,265.346,41.736,22.604,73.56,72.219,52.68,-145.582,-2136.439,-19.004,334.164,125.272,-201.445,-595.095,-97.109,0.0,0.0,193.0,0,1688564275.236,2023-07-05 15:37:55,Rest
10,0,94.251,106.5,-7.093,88.837,84.108,66.763,-348.45,-211.0,50.273,-19.501,32.057,97.703,52.779,0.014,42.719,144.369,440.441,22.258,257.908,44.769,8.749,64.264,67.024,34.697,-169.515,-2146.085,-33.33,323.584,117.975,-215.588,-612.943,-113.918,0.0,0.0,208.0,0,1688564275.2437,2023-07-05 15:37:55,Rest
11,0,79.813,86.925,-23.48,74.916,68.142,55.938,-359.885,-226.671,42.025,-24.605,22.803,87.872,48.628,5.137,47.287,144.737,434.877,18.649,253.04,51.896,3.105,56.003,54.661,9.559,-189.325,-2160.333,-53.789,308.916,108.635,-231.766,-635.896,-128.661,0.0,0.0,213.0,0,1688564275.2515,2023-07-05 15:37:55,Rest
12,0,66.925,71.982,-37.801,63.57,46.557,42.05,-364.136,-240.789,39.422,-32.777,17.145,78.562,44.481,5.132,32.383,133.834,421.634,9.409,247.664,38.012,8.737,44.164,43.848,1.352,-190.673,-2162.271,-73.203,295.799,96.743,-243.83,-649.605,-146.976,0.0,0.0,216.0,0,1688564275.2592,2023-07-05 15:37:55,Rest
13,0,73.518,74.983,-34.177,65.556,45.486,45.594,-357.112,-243.109,43.993,-33.257,21.227,80.533,49.047,8.713,36.449,129.089,422.75,16.572,250.49,38.998,21.536,49.243,49.44,13.646,-178.699,-2151.4,-72.105,300.626,98.696,-241.025,-637.172,-148.878,0.0,0.0,218.0,0,1688564275.267,2023-07-05 15:37:55,Rest
14,0,82.154,81.568,-26.458,70.614,52.613,54.258,-352.144,-242.354,48.56,-26.051,27.353,87.625,58.22,15.876,47.171,133.571,433.598,32.949,256.899,57.403,32.273,65.588,58.099,23.879,-180.057,-2143.613,-65.373,312.109,105.77,-234.636,-620.141,-137.97,0.0,0.0,207.0,0,1688564275.2747,2023-07-05 15:37:55,Rest
15,0,81.559,81.999,-26.432,71.568,48.974,51.642,-354.865,-247.235,46.974,-30.636,24.252,88.049,57.137,10.225,35.853,126.777,431.115,29.843,250.495,49.148,23.019,66.034,53.943,23.855,-201.907,-2144.543,-68.894,313.334,102.078,-235.426,-620.545,-142.956,0.0,0.0,216.0,0,1688564275.2825,2023-07-05 15:37:55,Rest
16,0,80.966,82.43,-29.479,70.984,51.487,49.029,-356.047,-248.524,43.854,-42.388,19.104,84.887,47.346,-4.13,22.497,113.33,421.975,11.882,239.998,31.168,-4.156,58.284,49.791,17.683,-212.463,-2143.936,-71.386,309.946,97.365,-235.703,-621.462,-152.034,0.0,0.0,205.0,0,1688564275.2902,2023-07-05 15:37:55,Rest
17,0,81.909,84.396,-29.962,70.913,58.095,50.516,-353.642,-246.227,43.81,-42.858,17.036,84.803,41.151,-13.347,20.937,109.631,422.065,0.599,239.246,30.113,-13.374,59.25,52.302,13.567,-196.881,-2137.693,-70.29,308.612,99.317,-234.442,-616.229,-148.296,0.0,0.0,215.0,0,1688564275.2981,2023-07-05 15:37:55,Rest
18,0,86.95,91.484,-23.784,71.354,58.037,52.515,-349.19,-247.005,46.84,-36.668,17.531,86.255,40.598,-18.969,16.306,107.472,426.766,-3.5,241.056,27.521,-1.065,63.802,54.811,17.14,-183.877,-2127.871,-69.708,313.426,101.779,-234.208,-613.564,-143.025,0.0,0.0,197.0,0,1688564275.3059,2023-07-05 15:37:55,Rest
19,0,89.937,97.028,-19.15,74.869,60.028,55.537,-344.742,-246.246,46.793,-34.582,20.075,87.193,39.532,-19.462,11.679,98.143,425.827,-7.082,241.327,21.346,-3.113,62.713,54.244,17.635,-189.841,-2120.108,-73.224,316.699,102.702,-234.486,-608.852,-144.418,0.0,0.0,215.0,0,1688564275.3136,2023-07-05 15:37:55,Rest
20,0,82.163,89.246,-27.84,73.257,57.919,48.821,-347.472,-245.999,43.672,-36.084,13.908,83.007,33.345,-16.881,6.032,92.41,412.081,-12.711,234.938,14.152,-14.893,54.454,48.042,9.933,-199.385,-2121.574,-87.496,305.624,97.988,-238.862,-610.805,-151.446,0.0,0.0,217.0,0,1688564275.3213,2023-07-05 15:37:55,Rest
21,0,76.445,80.96,-34.472,64.987,48.127,40.575,-355.321,-251.901,41.579,-39.122,4.16,76.777,32.799,-16.352,-1.147,94.366,395.787,-14.747,226.506,4.404,-10.268,47.227,43.896,3.263,-203.284,-2127.649,-102.265,293.023,91.743,-249.382,-628.125,-160.516,0.0,0.0,211.0,0,1688564275.3291,2023-07-05 15:37:55,Rest
22,0,82.004,82.416,-32.388,61.336,43.468,45.145,-352.404,-256.772,44.099,-41.132,4.668,78.237,39.427,-11.725,9.613,102.981,392.318,-4.486,233.964,15.158,-3.085,53.84,45.901,1.723,-207.691,-2125.521,-106.774,295.804,93.188,-256.305,-638.767,-166.504,0.0,0.0,213.0,0,1688564275.3369,2023-07-05 15:37:55,Rest
23,0,83.459,77.211,-36.967,58.713,36.765,44.588,-345.904,-258.565,47.129,-43.14,6.2,82.257,43.998,-5.053,29.071,116.198,393.975,8.838,241.927,32.561,1.529,60.958,46.368,6.844,-209.533,-2118.785,-110.765,298.069,94.119,-257.585,-641.715,-174.022,0.0,0.0,215.0,0,1688564275.3446,2023-07-05 15:37:55,Rest
24,0,78.252,67.4,-44.102,48.92,27.507,36.859,-347.607,-261.892,46.057,-48.22,1.071,78.589,46.003,-4.536,31.091,122.23,389.995,12.928,232.976,23.307,12.798,58.848,42.735,10.423,-209.323,-2116.666,-119.876,291.624,88.39,-259.889,-651.831,-181.02,0.0,0.0,207.0,0,1688564275.3524,2023-07-05 15:37:55,Rest
25,0,75.613,68.357,-42.009,42.212,25.43,37.847,-352.383,-264.704,42.425,-52.27,1.07,75.436,47.494,-8.118,23.888,116.984,388.068,15.989,230.182,14.575,7.15,60.326,40.131,3.241,-216.799,-2116.599,-124.879,288.258,86.764,-263.216,-654.253,-181.351,0.0,0.0,210.0,0,1688564275.3602,2023-07-05 15:37:55,Rest
26,0,74.512,71.875,-40.942,43.706,23.868,38.833,-355.104,-268.538,40.334,-51.706,1.069,75.873,44.885,-13.233,19.765,113.281,383.069,16.485,232.513,18.659,-12.325,59.753,40.091,-3.423,-224.266,-2116.532,-127.316,287.97,86.678,-265.002,-645.402,-183.219,0.0,0.0,191.0,0,1688564275.368,2023-07-05 15:37:55,Rest
27,0,79.561,75.901,-38.34,47.761,26.918,36.233,-351.163,-269.807,39.781,-49.092,-0.981,77.334,44.328,-15.781,14.11,113.168,376.538,6.735,223.571,8.906,-11.288,53.546,42.612,-0.858,-221.993,-2114.415,-126.164,289.219,88.128,-263.2,-639.634,-183.036,0.0,0.0,206.0,0,1688564275.3757,2023-07-05 15:37:55,Rest
28,0,89.728,87.608,-26.006,54.886,38.161,43.881,-340.053,-259.803,43.327,-50.068,4.143,81.868,47.357,-15.765,8.461,111.518,381.285,1.605,220.274,1.725,-7.691,57.591,46.156,0.168,-221.259,-2105.128,-122.964,295.077,96.237,-256.789,-633.871,-170.558,0.0,0.0,208.0,0,1688564275.3835,2023-07-05 15:37:55,Rest
29,0,88.101,89.058,-21.882,56.368,37.099,45.374,-339.713,-252.371,45.845,-55.653,7.212,82.81,44.236,-23.434,3.329,109.869,383.465,5.19,221.59,4.285,-21.003,60.607,44.573,-5.468,-226.673,-2101.486,-129.501,292.733,95.116,-258.069,-634.774,-170.899,0.0,0.0,211.0,0,1688564275.3912,2023-07-05 15:37:55,Rest
30,0,77.767,76.673,-32.106,48.114,27.328,34.571,-347.571,-255.192,42.726,-58.159,1.57,76.067,38.557,-33.657,1.277,108.735,369.761,-2.5,210.61,-8.527,-23.543,49.276,39.917,-7.512,-226.446,-2107.069,-140.642,283.219,82.725,-268.057,-647.459,-188.147,0.0,0.0,198.0,0,1688564275.399,2023-07-05 15:37:55,Rest
31,0,78.714,75.06,-33.611,45.505,27.813,37.61,-344.149,-252.375,40.634,-51.441,1.568,74.967,40.055,-25.938,7.935,110.163,366.83,-9.67,209.887,-13.13,-14.298,49.739,39.365,-4.943,-223.658,-2102.913,-142.551,283.96,81.618,-270.351,-646.812,-191.033,0.0,0.0,221.0,0,1688564275.4067,2023-07-05 15:37:55,Rest
32,0,82.733,78.571,-29.991,48.533,25.736,43.208,-339.194,-254.172,44.179,-49.852,3.616,78.99,42.064,-16.691,13.563,117.225,371.586,-0.439,217.874,-0.309,-12.235,59.935,39.326,-2.888,-229.582,-2094.15,-143.433,287.775,85.122,-271.105,-638.48,-189.817,4096.0,0.0,0.0,0,1688564275.4145,2023-07-05 15:37:55,Rest
33,0,75.991,68.758,-38.67,41.312,17.001,31.894,-346.027,-270.824,42.598,-58.0,-2.023,72.764,38.436,-25.383,12.012,120.694,360.969,3.66,208.435,-6.968,-11.71,52.703,34.676,-7.496,-240.623,-2094.618,-151.999,282.364,76.84,-280.055,-650.137,-203.459,3968.0,0.0,0.0,0,1688564275.4223,2023-07-05 15:37:55,Rest
34,0,69.255,62.542,-43.242,32.049,12.373,26.226,-350.292,-277.213,37.945,-62.04,-6.632,66.031,33.274,-27.92,12.513,120.061,351.386,-1.979,200.03,-16.695,-13.748,43.429,32.079,-15.173,-237.309,-2092.523,-162.605,275.934,71.641,-282.849,-659.733,-208.379,4096.0,0.0,0.0,0,1688564275.4301,2023-07-05 15:37:55,Rest
35,0,68.161,64.016,-37.564,34.066,9.799,33.372,-348.917,-272.838,39.444,-59.929,-8.675,69.039,30.68,-19.695,16.086,125.577,349.498,-0.952,204.44,-8.482,-20.906,46.971,31.023,-19.769,-223.239,-2083.77,-170.127,272.584,75.667,-280.005,-651.901,-199.461,3840.0,0.0,0.0,0,1688564275.4378,2023-07-05 15:37:55,Rest
36,0,68.605,63.44,-34.964,38.643,10.814,32.827,-347.544,-272.565,41.966,-57.82,-11.74,70.507,32.698,-24.286,17.607,129.549,344.537,0.585,199.113,-8.985,-26.008,46.412,29.455,-24.872,-224.041,-2079.125,-172.519,268.725,76.104,-283.311,-650.225,-199.774,4096.0,0.0,0.0,0,1688564275.4456,2023-07-05 15:37:55,Rest
37,0,74.172,71.574,-30.319,41.678,20.024,31.769,-342.073,-263.583,42.949,-55.713,-7.117,72.485,36.764,-31.434,19.126,127.883,346.242,-1.464,189.692,-16.661,-37.766,43.804,36.598,-29.458,-240.723,-2072.435,-172.346,267.944,77.565,-278.929,-653.161,-199.574,4096.0,0.0,0.0,0,1688564275.4533,2023-07-05 15:37:55,Rest
38,0,82.807,83.285,-20.042,50.346,27.177,40.959,-335.583,-247.438,48.029,-55.145,0.575,80.097,39.289,-30.378,13.984,126.218,352.556,-3.512,188.478,-20.743,-58.732,47.859,45.783,-25.843,-242.531,-2060.629,-172.686,272.287,83.635,-264.818,-645.335,-186.055,4096.0,0.0,0.0,0,1688564275.4611,2023-07-05 15:37:55,Rest
39,0,86.31,86.276,-14.387,57.468,30.223,45.017,-332.174,-242.068,50.542,-57.139,2.623,83.091,37.712,-35.983,4.749,124.043,346.568,-10.681,182.654,-31.993,-64.821,48.323,42.151,-22.231,-230.506,-2056.519,-173.026,275.089,88.162,-261.479,-638.03,-179.721,4096.0,0.0,0.0,0,1688564275.4688,2023-07-05 15:37:55,Rest
40,0,86.736,86.702,-14.372,58.947,32.242,40.361,-328.255,-238.239,46.906,-52.983,3.133,80.447,34.601,-42.095,7.818,122.894,341.611,-16.306,176.324,-37.084,-58.609,46.226,39.035,-23.745,-227.713,-2059.586,-172.34,276.35,88.074,-266.341,-639.953,-189.275,4480.0,0.0,0.0,0,1688564275.4765,2023-07-05 15:37:55,Rest
41,0,84.6,82.004,-22.043,53.765,28.112,37.247,-331.513,-239.538,45.834,-50.368,0.056,77.292,31.492,-40.003,16.519,128.407,342.806,-13.728,175.635,-31.924,-63.161,47.716,41.557,-24.746,-235.683,-2059.063,-177.291,275.049,82.35,-270.173,-651.609,-201.381,4096.0,0.0,0.0,0,1688564275.4844,2023-07-05 15:37:55,Rest
42,0,79.392,67.578,-31.242,44.49,20.399,33.111,-339.891,-254.155,44.251,-59.54,-7.629,70.555,31.461,-37.402,16.503,131.864,334.266,-11.665,169.824,-36.503,-67.709,45.107,35.88,-30.357,-245.181,-2061.615,-191.971,267.602,75.608,-281.686,-667.863,-210.402,3840.0,0.0,0.0,0,1688564275.4921,2023-07-05 15:37:55,Rest
43,0,77.264,63.412,-30.699,37.786,16.792,29.492,-339.039,-259.537,42.158,-66.14,-6.597,68.435,35.016,-31.729,16.486,131.22,323.686,-7.042,166.068,-36.466,-57.907,39.939,32.258,-38.011,-251.083,-2064.676,-204.074,260.162,76.045,-293.187,-672.831,-215.314,3840.0,0.0,0.0,0,1688564275.4999,2023-07-05 15:37:55,Rest
44,0,73.6,65.397,-29.643,38.26,13.19,29.462,-338.188,-256.716,46.726,-63.0,-4.028,69.904,38.567,-26.062,23.13,135.7,319.264,4.235,171.537,-25.671,-48.628,41.948,34.787,-35.411,-250.32,-2059.538,-204.895,259.39,76.481,-296.48,-669.084,-220.734,4096.0,0.0,0.0,0,1688564275.5076,2023-07-05 15:37:55,Rest
45,0,67.379,54.573,-39.348,34.636,5.492,24.822,-345.022,-267.217,49.241,-62.937,-13.758,65.223,36.991,-28.597,26.18,140.175,315.871,7.305,170.854,-27.183,-50.628,42.419,28.605,-36.401,-249.045,-2054.917,-208.276,255.032,68.208,-303.356,-675.075,-229.223,4096.0,0.0,0.0,0,1688564275.5154,2023-07-05 15:37:55,Rest
46,0,66.287,47.347,-44.944,27.941,-1.686,20.186,-348.263,-277.196,44.069,-65.436,-18.355,60.547,32.344,-31.13,29.74,141.059,313.505,5.248,167.097,-31.766,-52.627,37.765,23.453,-43.024,-255.456,-2056.448,-220.875,243.506,64.041,-311.249,-683.109,-233.092,4096.0,0.0,0.0,0,1688564275.5231,2023-07-05 15:37:55,Rest
47,0,64.172,51.398,-42.337,26.888,-4.758,20.678,-348.939,-273.845,44.025,-63.833,-12.701,61.511,28.213,-31.611,40.469,147.578,309.093,9.854,166.929,-30.197,-55.648,35.166,25.479,-43.494,-266.471,-2058.49,-230.388,239.676,66.026,-309.914,-682.426,-232.859,4096.0,0.0,0.0,0,1688564275.5309,2023-07-05 15:37:55,Rest
48,0,60.521,45.711,-46.393,25.325,-6.29,16.559,-351.664,-272.547,47.567,-68.893,-16.787,57.351,24.598,-37.215,47.601,154.091,295.464,6.258,157.541,-35.803,-67.888,31.032,19.818,-48.061,-273.377,-2070.264,-235.793,240.461,61.349,-313.702,-685.842,-242.36,4224.0,0.0,0.0,0,1688564275.5386,2023-07-05 15:37:55,Rest
49,0,65.071,40.03,-52.494,19.664,-7.821,11.42,-349.263,-272.786,43.421,-76.508,-20.869,54.732,24.061,-35.641,46.529,152.912,286.46,-3.994,150.211,-39.353,-77.041,25.366,14.675,-56.21,-266.956,-2082.538,-244.267,235.61,56.165,-319.024,-691.816,-248.778,3840.0,0.0,0.0,0,1688564275.5465,2023-07-05 15:37:55,Rest
50,0,73.203,53.822,-44.757,23.743,-2.69,16.531,-345.328,-266.878,42.353,-71.821,-12.139,62.362,28.136,-29.458,48.531,156.345,283.612,0.108,157.746,-28.043,-68.255,30.976,24.907,-46.42,-252.857,-2061.5,-237.875,237.936,62.256,-308.459,-679.854,-237.258,4096.0,0.0,0.0,0,1688564275.5542,2023-07-05 15:37:55,Rest
51,0,77.229,67.601,-29.856,36.014,10.633,26.249,-338.322,-257.39,46.921,-65.089,-8.541,67.423,32.206,-33.527,49.507,162.336,277.18,6.768,157.588,-20.842,-56.404,41.704,31.03,-35.615,-254.653,-2026.651,-220.731,251.018,71.928,-298.416,-661.243,-222.164,3968.0,33554432.0,0.0,0,1688564275.562,2023-07-05 15:37:55,Rest
52,0,80.738,66.508,-26.752,40.077,15.745,28.784,-329.275,-252.009,47.899,-66.561,-11.606,66.843,32.686,-39.641,41.773,155.514,277.416,2.15,149.233,-29.531,-58.909,44.223,27.925,-39.678,-261.571,-2023.087,-218.973,258.452,72.368,-300.167,-661.094,-221.429,3712.0,0.0,0.0,0,1688564275.5697,2023-07-05 15:37:55,Rest
53,0,79.632,61.831,-33.385,37.475,11.631,27.73,-329.458,-255.856,48.363,-65.47,-6.983,70.875,36.752,-34.99,36.608,146.649,284.31,1.636,150.621,-40.26,-62.436,45.716,29.434,-38.613,-249.014,-2034.897,-229.0,256.656,66.661,-301.916,-669.655,-227.868,3840.0,0.0,0.0,0,1688564275.5775,2023-07-05 15:37:55,Rest
54,0,76.991,58.183,-35.913,38.975,11.107,27.19,-333.227,-261.748,49.34,-62.843,-3.903,73.878,44.912,-26.246,41.183,149.064,282.489,8.807,148.933,-39.707,-59.812,48.744,31.966,-37.038,-236.469,-2033.886,-231.845,256.912,66.594,-303.664,-667.448,-232.763,3456.0,0.0,0.0,0,1688564275.5852,2023-07-05 15:37:55,Rest
55,0,74.352,55.563,-38.951,35.862,9.559,23.065,-332.381,-260.974,45.192,-66.366,-10.046,67.656,42.818,-24.683,42.166,149.94,278.621,8.285,142.125,-29.934,-61.289,44.597,26.811,-47.759,-247.504,-2031.34,-237.761,254.606,66.527,-309.508,-668.83,-238.166,3968.0,0.0,0.0,0,1688564275.593,2023-07-05 15:37:55,Rest
56,0,66.081,49.36,-46.085,25.58,-0.697,15.869,-337.172,-266.348,41.561,-68.861,-17.209,59.391,30.48,-31.831,40.075,146.716,273.219,3.666,140.445,-31.953,-65.839,36.868,18.587,-57.445,-262.113,-2032.895,-249.819,245.642,58.264,-314.833,-682.506,-247.661,4096.0,0.0,0.0,0,1688564275.6007,2023-07-05 15:37:55,Rest
57,0,59.867,40.089,-49.625,25.042,-4.795,11.243,-344.52,-277.865,43.568,-70.329,-25.901,55.234,22.765,-39.996,40.547,145.545,259.113,1.101,134.157,-45.753,-67.822,30.171,12.933,-63.535,-266.974,-2029.325,-257.766,236.175,51.033,-322.203,-687.971,-255.098,4096.0,0.0,0.0,0,1688564275.6086,2023-07-05 15:37:55,Rest
58,0,62.881,39.537,-49.063,32.189,-2.741,10.207,-341.613,-277.075,46.086,-77.431,-28.436,54.154,21.717,-43.542,39.482,144.887,250.657,-4.023,127.363,-48.781,-73.39,26.555,14.457,-68.595,-268.244,-2024.734,-262.119,231.84,53.032,-325.98,-681.648,-253.306,4096.0,0.0,0.0,0,1688564275.6163,2023-07-05 15:37:55,Rest
59,0,63.843,46.157,-46.452,29.083,-4.275,10.197,-334.612,-269.113,45.528,-82.989,-22.773,53.587,21.183,-45.035,39.442,146.279,246.82,-7.093,133.383,-43.61,-73.316,29.09,17.516,-67.502,-264.39,-2020.148,-264.93,233.658,54.515,-323.604,-678.917,-247.93,4096.0,0.0,0.0,0,1688564275.6241,2023-07-05 15:37:55,Rest
60,0,59.169,43.55,-44.357,22.394,-7.857,9.162,-334.277,-270.381,42.408,-82.906,-25.824,50.46,18.601,-49.089,38.378,147.669,232.229,-6.061,132.738,-46.64,-69.657,28.036,12.888,-69.484,-265.15,-2017.103,-267.227,233.936,49.85,-325.842,-684.898,-249.219,4096.0,0.0,0.0,0,1688564275.6318,2023-07-05 15:37:55,Rest
61,0,58.085,36.334,-50.46,23.396,-11.947,5.054,-337.529,-275.233,40.317,-84.36,-35.532,48.36,16.021,-51.601,25.532,134.202,227.386,-10.666,121.334,-52.741,-80.346,23.397,7.24,-76.586,-275.131,-2019.185,-273.62,228.067,45.702,-329.615,-690.361,-256.142,4096.0,0.0,0.0,0,1688564275.6396,2023-07-05 15:37:55,Rest
62,0,64.174,36.297,-58.606,23.885,-15.522,3.512,-337.192,-272.909,44.887,-82.739,-29.348,51.898,19.591,-47.963,18.334,121.772,247.651,-14.241,121.725,-55.25,-87.95,29.009,10.819,-69.85,-271.27,-2016.653,-276.42,228.863,46.169,-324.674,-686.084,-261.521,4096.0,0.0,0.0,0,1688564275.6473,2023-07-05 15:37:55,Rest
63,0,68.209,37.286,-54.449,23.349,-13.457,6.583,-334.293,-267.513,48.941,-75.484,-20.097,55.945,28.28,-41.255,29.074,130.872,260.211,-5.005,130.825,-53.657,-74.03,37.689,14.906,-59.021,-259.215,-2008.489,-271.02,236.832,48.684,-323.837,-679.763,-262.284,4096.0,0.0,0.0,0,1688564275.6551,2023-07-05 15:37:55,Rest
64,0,63.53,32.638,-52.858,23.838,-12.931,6.576,-337.032,-265.709,44.281,-77.458,-25.2,53.839,28.764,-41.726,35.705,138.938,246.118,4.221,129.157,-51.555,-66.271,34.578,12.33,-65.11,-268.178,-2010.066,-273.311,233.521,47.611,-329.149,-685.743,-263.559,0.0,0.0,219.0,0,1688564275.6628,2023-07-05 15:37:55,Rest
65,0,61.929,33.117,-58.953,20.228,-15.992,5.033,-339.769,-261.344,41.163,-85.577,-26.2,52.761,26.686,-41.685,33.108,136.238,228.454,4.729,124.417,-59.7,-72.352,30.445,10.781,-73.754,-281.229,-2015.741,-279.698,223.554,44.489,-328.308,-692.229,-265.857,0.0,0.0,227.0,0,1688564275.6706,2023-07-05 15:37:55,Rest
66,0,69.552,39.744,-56.332,22.769,-12.39,9.126,-332.257,-253.398,43.171,-81.906,-20.538,57.319,32.807,-33.446,40.76,145.323,219.516,5.749,127.879,-63.739,-71.256,33.488,15.381,-71.119,-281.461,-2010.139,-274.807,229.478,48.031,-324.393,-680.779,-261.493,0.0,0.0,211.0,0,1688564275.6784,2023-07-05 15:37:55,Rest
67,0,70.507,42.778,-50.128,28.382,-8.279,12.191,-329.363,-258.268,44.665,-75.164,-26.153,58.799,30.725,-35.462,47.891,158.498,208.538,-2.454,129.8,-53.429,-77.844,31.918,17.415,-73.097,-285.79,-2004.03,-272.483,235.908,53.618,-325.606,-671.389,-256.62,0.0,0.0,224.0,0,1688564275.6861,2023-07-05 15:37:55,Rest
68,0,63.776,39.662,-53.664,24.767,-9.808,9.105,-338.256,-268.768,48.206,-75.601,-32.787,55.154,21.473,-47.722,47.331,160.901,191.936,-19.87,123.523,-52.863,-96.209,26.25,11.762,-81.221,-286.016,-2002.539,-279.895,224.914,49.978,-325.792,-677.377,-260.462,0.0,0.0,143.0,0,1688564275.6939,2023-07-05 15:37:55,Rest
69,0,68.323,43.72,-49.512,27.816,-3.138,12.169,-331.77,-258.766,53.281,-72.451,-25.582,58.172,25.55,-44.088,55.481,167.4,179.449,-20.874,117.764,-63.569,-92.015,26.736,13.287,-77.041,-270.361,-1994.901,-278.591,224.689,48.391,-318.294,-673.114,-258.153,0.0,0.0,225.0,0,1688564275.7016,2023-07-05 15:37:55,Rest
70,0,79.014,55.972,-35.63,43.67,8.136,20.354,-316.069,-244.675,53.228,-63.157,-16.847,67.336,33.209,-32.261,64.647,179.015,175.171,-8.046,122.257,-62.993,-75.017,34.907,25.569,-61.595,-263.943,-1984.197,-267.041,240.346,56.54,-308.754,-651.948,-244.574,0.0,0.0,222.0,0,1688564275.7094,2023-07-05 15:37:55,Rest
71,0,79.959,57.453,-36.107,42.602,4.542,22.383,-317.289,-251.09,52.662,-57.971,-16.318,70.854,34.201,-32.741,65.094,180.886,176.02,-4.452,130.332,-55.758,-71.868,43.581,25.543,-52.824,-264.704,-1982.725,-264.213,243.179,60.07,-308.446,-640.026,-243.305,0.0,0.0,222.0,0,1688564275.7171,2023-07-05 15:37:55,Rest
72,0,76.805,48.174,-46.317,30.264,-7.246,19.287,-321.071,-255.45,55.171,-62.524,-16.814,68.734,37.752,-32.196,67.591,179.68,178.406,-0.349,133.275,-55.702,-62.062,47.636,17.833,-47.648,-254.193,-1982.791,-270.096,238.838,55.911,-315.31,-639.386,-253.82,0.0,0.0,208.0,0,1688564275.7249,2023-07-05 15:37:55,Rest
73,0,76.216,47.614,-46.783,32.283,-8.263,18.243,-316.139,-246.485,54.604,-71.171,-13.211,69.178,44.375,-22.43,72.646,180.013,178.227,4.775,133.654,-60.769,-47.655,49.637,21.914,-39.404,-252.402,-1975.173,-272.388,243.21,55.855,-314.994,-635.672,-257.665,0.0,0.0,193.0,0,1688564275.7327,2023-07-05 15:37:55,Rest
74,0,74.603,50.64,-44.687,33.788,-5.693,18.225,-314.798,-245.214,52.5,-73.149,-8.075,72.695,48.429,-16.26,72.574,179.833,175.487,2.208,134.545,-66.856,-59.391,51.125,24.966,-40.901,-264.445,-1970.124,-274.677,240.917,56.824,-310.581,-637.086,-257.92,0.0,0.0,208.0,0,1688564275.7405,2023-07-05 15:37:55,Rest
75,0,71.455,45.978,-50.278,24.532,-12.348,17.182,-317.045,-253.166,50.91,-68.465,-10.116,71.598,51.967,-15.731,72.501,180.677,175.312,5.28,134.411,-66.277,-80.336,49.024,17.769,-51.106,-264.693,-1975.326,-285.673,230.942,52.669,-314.881,-646.695,-262.785,0.0,0.0,213.0,0,1688564275.7482,2023-07-05 15:37:55,Rest
76,0,66.772,38.76,-55.863,22.971,-19.508,13.066,-319.289,-258.548,47.786,-69.421,-20.864,63.841,45.767,-20.838,72.941,175.886,172.575,12.959,130.69,-63.649,-89.477,42.315,15.189,-58.74,-263.403,-1982.06,-298.195,227.125,46.981,-323.275,-652.196,-268.67,0.0,0.0,216.0,0,1688564275.756,2023-07-05 15:37:55,Rest
77,0,64.656,37.697,-53.758,28.583,-16.927,9.467,-324.605,-260.338,49.275,-73.45,-24.429,61.216,33.426,-32.601,73.38,171.099,163.693,8.336,124.412,-71.782,-102.708,35.613,16.711,-65.854,-270.825,-1978.541,-297.897,224.337,45.397,-321.927,-653.593,-268.913,0.0,0.0,219.0,0,1688564275.7637,2023-07-05 15:37:55,Rest
78,0,66.641,42.782,-47.044,29.579,-10.25,14.581,-321.207,-253.418,53.836,-70.303,-19.282,66.278,31.855,-34.617,76.381,175.539,160.968,3.204,120.189,-78.371,-116.437,33.016,16.182,-69.886,-269.529,-1969.39,-289.402,218.989,48.425,-312.384,-649.866,-264.034,0.0,0.0,207.0,0,1688564275.7715,2023-07-05 15:37:55,Rest
