COUNTER,INTERPOLATED,Cz,Fz,Fp1,F7,F3,FC1,C3,FC5,FT9,T7,CP5,CP1,P3,P7,PO9,O1,Pz,Oz,O2,PO10,P8,P4,CP2,CP6,T8,FT10,FC6,C4,FC2,F4,F8,Fp2,HighBitFlex,SaturationFlag,RAW_CQ,MARKER_HARDWARE,MARKERS,Human Readable Time,New Label
122,0,5.112,53.427,130.045,55.661,-19.479,18.193,-5.483,-256.841,-1.632,-152.561,-31.961,47.631,-20.403,-95.94,-165.294,-91.115,-23.439,-56.103,-42.541,-58.349,-29.837,17.889,25.59,-29.677,-68.701,10.734,-69.507,-0.183,22.503,7.17,-249.686,80.418,3968.0,0.0,0.0,0,1688564518.1063,2023-07-05 15:41:58,Rest
123,0,-6.164,36.467,110.447,39.211,-36.878,5.367,-16.748,-273.49,-9.315,-167.265,-46.786,30.165,-35.752,-106.603,-184.084,-105.881,-35.711,-70.392,-56.843,-71.099,-49.275,2.501,12.757,-42.967,-82.465,-1.06,-84.807,-16.576,11.722,-7.182,-267.879,58.309,3968.0,0.0,0.0,0,1688564518.1142,2023-07-05 15:41:58,Rest
124,0,-9.232,29.259,93.943,26.364,-46.575,-0.786,-23.391,-275.778,-8.794,-170.684,-52.887,21.426,-38.278,-111.619,-184.413,-107.312,-58.217,-78.519,-67.545,-80.761,-62.545,-4.161,4.547,-45.486,-82.895,2.527,-87.283,-20.658,4.025,-10.249,-271.71,46.467,3968.0,0.0,0.0,0,1688564518.122,2023-07-05 15:41:58,Rest
125,0,-12.297,23.594,77.967,19.165,-55.75,-8.47,-32.077,-278.064,-8.272,-167.439,-56.933,19.867,-41.313,-117.655,-183.204,-102.593,-71.479,-88.174,-74.649,-90.927,-75.29,-7.743,-4.679,-50.563,-81.275,7.648,-89.758,-20.125,-6.225,-14.337,-285.27,31.052,3968.0,0.0,0.0,0,1688564518.1299,2023-07-05 15:41:58,Rest
126,0,-16.383,16.398,66.106,16.072,-65.94,-15.122,-36.144,-286.495,-7.752,-169.833,-63.023,14.212,-44.346,-119.074,-194.291,-108.639,-77.555,-98.332,-80.722,-97.496,-85.974,-15.42,-13.384,-61.271,-86.829,9.177,-94.791,-25.74,-12.366,-24.056,-300.354,12.578,3968.0,0.0,0.0,0,1688564518.1377,2023-07-05 15:41:58,Rest
127,0,-22.002,10.746,52.208,4.273,-77.657,-19.717,-38.157,-290.307,-4.158,-173.25,-66.547,6.513,-44.302,-115.881,-184.875,-93.673,-109.753,-100.283,-87.814,-94.324,-86.912,-21.04,-17.469,-61.722,-89.816,16.34,-93.672,-30.838,-17.989,-30.18,-298.005,-1.78,3968.0,65536.0,0.0,0,1688564518.1456,2023-07-05 15:41:58,Rest
0,0,-27.615,2.026,33.2,-8.539,-90.9,-27.382,-43.754,-291.554,-5.178,-170.003,-66.992,5.482,-42.208,-113.204,-164.71,-72.062,-135.771,-94.035,-85.165,-85.521,-67.358,-13.334,-20.525,-47.316,-78.455,21.959,-91.529,-27.733,-26.168,-36.298,-297.707,-22.27,0.0,0.0,221.0,0,1688564518.1535,2023-07-05 15:41:58,Rest
1,0,-29.124,-9.247,17.286,-11.092,-99.006,-36.064,-48.321,-295.873,-10.809,-166.246,-68.462,4.964,-38.067,-111.554,-176.841,-97.093,-102.847,-86.768,-72.272,-73.14,-35.527,-0.001,-27.164,-33.436,-67.619,22.45,-92.974,-26.681,-31.265,-50.094,-312.778,-46.326,0.0,65536.0,228.0,0,1688564518.1614,2023-07-05 15:41:58,Rest
2,0,-32.169,-17.434,2.411,-16.204,-108.128,-41.663,-51.859,-298.138,-10.798,-169.666,-75.566,-0.164,-36.492,-114.516,-198.181,-129.272,-69.957,-82.071,-66.052,-65.895,-21.147,5.635,-33.285,-29.817,-71.137,21.403,-98.004,-33.314,-36.869,-63.363,-324.761,-64.211,0.0,98304.0,212.0,0,1688564518.1692,2023-07-05 15:41:58,Rest
3,0,-37.26,-25.614,-11.423,-24.384,-119.291,-46.745,-57.442,-298.865,-8.738,-171.034,-82.151,-3.75,-42.604,-119.525,-195.421,-119.409,-91.916,-74.816,-65.474,-63.267,-26.761,5.117,-38.375,-33.885,-73.627,18.82,-103.542,-37.379,-44.517,-67.399,-328.022,-75.93,0.0,0.0,226.0,0,1688564518.1771,2023-07-05 15:41:58,Rest
4,0,-38.76,-32.248,-17.56,-23.848,-122.246,-51.821,-63.02,-304.201,-7.704,-166.252,-83.093,-6.307,-48.196,-121.454,-191.64,-110.58,-117.439,-72.18,-66.945,-61.155,-35.956,3.062,-43.46,-42.048,-72.017,20.85,-103.95,-39.391,-48.059,-68.356,-329.744,-83.538,0.0,0.0,124.0,0,1688564518.1849,2023-07-05 15:41:58,Rest
5,0,-40.258,-31.703,-20.616,-24.336,-121.099,-54.331,-63.982,-307.996,-5.135,-167.622,-81.985,-9.887,-49.685,-120.308,-198.108,-122.252,-104.514,-81.842,-71.489,-67.753,-46.166,3.571,-45.465,-46.617,-78.093,28.002,-99.748,-41.401,-49.035,-71.361,-334.025,-89.602,0.0,0.0,225.0,0,1688564518.1928,2023-07-05 15:41:58,Rest
6,0,-38.681,-31.672,-25.718,-29.435,-125.076,-55.301,-62.381,-305.126,-5.642,-169.504,-82.416,-8.853,-48.099,-118.651,-197.398,-124.179,-100.311,-88.42,-73.467,-76.907,-56.879,4.593,-45.42,-44.521,-79.551,30.023,-99.136,-36.236,-50.523,-72.827,-339.838,-96.685,0.0,0.0,222.0,0,1688564518.2007,2023-07-05 15:41:58,Rest
7,0,-35.056,-34.202,-30.816,-28.381,-128.025,-56.783,-64.368,-304.309,-8.711,-161.65,-85.407,-8.844,-48.563,-120.069,-196.688,-120.469,-117.117,-88.332,-75.442,-76.318,-63.994,1.514,-48.448,-46.014,-74.349,31.017,-100.061,-34.151,-51.497,-74.803,-341.035,-100.687,0.0,0.0,222.0,0,1688564518.2085,2023-07-05 15:41:58,Rest
8,0,-37.582,-32.118,-36.42,-28.865,-128.409,-57.751,-68.402,-306.566,-6.14,-158.414,-87.883,-13.958,-51.076,-123.536,-203.664,-126.496,-117.0,-95.928,-84.076,-79.316,-68.541,-1.561,-50.449,-48.529,-74.274,37.646,-98.424,-37.191,-51.958,-77.29,-339.157,-101.611,0.0,0.0,210.0,0,1688564518.2164,2023-07-05 15:41:58,Rest
9,0,-42.156,-33.111,-42.532,-39.082,-133.916,-60.254,-69.87,-307.284,-2.036,-167.99,-88.308,-17.53,-50.0,-123.924,-209.095,-138.665,-95.878,-103.517,-88.09,-89.995,-70.521,-1.56,-51.936,-45.407,-76.249,38.121,-97.814,-37.153,-53.955,-79.262,-344.454,-108.169,0.0,0.0,197.0,0,1688564518.2242,2023-07-05 15:41:58,Rest
10,0,-43.138,-45.373,-51.711,-49.289,-145.565,-66.342,-72.874,-310.563,-5.107,-173.97,-91.293,-19.05,-49.438,-125.85,-211.96,-151.334,-87.073,-103.413,-86.465,-91.442,-71.476,-6.169,-57.519,-48.948,-80.784,30.398,-102.327,-42.752,-61.586,-88.404,-356.917,-122.406,0.0,0.0,208.0,0,1688564518.2321,2023-07-05 15:41:58,Rest
11,0,-47.193,-51.475,-64.467,-54.363,-153.104,-71.911,-78.949,-318.962,-7.664,-173.283,-96.325,-20.055,-51.438,-129.31,-213.285,-149.134,-100.819,-99.211,-84.33,-87.252,-67.818,-6.675,-63.097,-55.046,-86.339,26.782,-110.421,-51.418,-70.234,-99.074,-365.269,-134.579,0.0,0.0,216.0,0,1688564518.2399,2023-07-05 15:41:58,Rest
12,0,-44.585,-45.788,-66.451,-52.259,-152.439,-70.302,-76.821,-322.229,-5.607,-174.135,-91.106,-13.375,-41.652,-123.033,-211.535,-135.152,-112.501,-89.378,-74.512,-78.968,-52.893,8.701,-60.472,-42.184,-78.055,33.927,-108.261,-43.682,-66.065,-97.438,-363.879,-135.981,0.0,0.0,217.0,0,1688564518.2478,2023-07-05 15:41:58,Rest
13,0,-32.757,-40.107,-55.626,-47.596,-148.188,-63.572,-67.01,-318.833,-5.089,-171.911,-83.842,-8.239,-32.389,-120.861,-213.885,-137.066,-106.753,-81.604,-67.777,-65.569,-35.934,19.451,-53.239,-23.698,-65.17,45.164,-94.833,-30.318,-56.777,-88.632,-356.343,-126.111,0.0,0.0,221.0,0,1688564518.2556,2023-07-05 15:41:58,Rest
14,0,-32.212,-36.993,-53.522,-49.086,-146.503,-64.02,-64.894,-317.489,-5.084,-170.715,-88.881,-9.768,-43.115,-133.547,-217.257,-147.175,-101.523,-88.182,-74.369,-66.015,-32.312,15.845,-52.674,-23.162,-64.08,53.316,-90.64,-30.288,-58.77,-85.981,-352.401,-120.862,0.0,0.0,210.0,0,1688564518.2635,2023-07-05 15:41:58,Rest
15,0,-36.79,-35.932,-59.103,-51.598,-148.918,-67.03,-70.977,-317.684,-1.493,-172.593,-90.842,-7.709,-48.195,-134.951,-219.089,-149.077,-106.545,-95.267,-76.344,-74.659,-32.28,14.805,-55.695,-22.627,-61.966,55.312,-94.648,-30.77,-61.272,-89.482,-356.659,-126.377,0.0,0.0,218.0,0,1688564518.2713,2023-07-05 15:41:58,Rest
16,0,-33.68,-38.97,-56.995,-49.497,-151.843,-63.889,-72.443,-319.416,-0.467,-168.835,-85.628,-7.189,-38.413,-124.57,-223.993,-151.49,-103.877,-93.634,-71.657,-67.412,-31.223,14.277,-55.639,-13.383,-58.831,53.72,-91.992,-28.178,-57.625,-92.466,-361.425,-128.299,0.0,0.0,211.0,0,1688564518.2792,2023-07-05 15:41:58,Rest
17,0,-35.695,-42.517,-58.475,-51.497,-153.228,-64.85,-70.833,-321.658,-4.565,-164.055,-89.641,-14.866,-41.961,-129.056,-227.868,-156.974,-94.551,-95.078,-75.172,-62.733,-33.241,7.603,-55.584,-14.906,-61.846,55.203,-93.436,-32.76,-62.69,-95.447,-364.65,-129.196,0.0,0.0,216.0,0,1688564518.287,2023-07-05 15:41:58,Rest
18,0,-41.295,-49.647,-66.101,-56.056,-157.685,-70.933,-73.836,-321.336,-4.56,-163.891,-96.211,-15.876,-48.579,-135.587,-223.541,-155.792,-96.506,-98.056,-77.146,-69.843,-32.183,6.059,-57.065,-22.064,-60.759,59.246,-103.589,-38.363,-68.775,-99.963,-369.921,-139.825,0.0,0.0,199.0,0,1688564518.295,2023-07-05 15:41:58,Rest
19,0,-36.643,-54.72,-66.547,-57.025,-163.675,-70.35,-76.324,-322.039,-0.457,-162.702,-91.504,-10.224,-38.796,-125.205,-215.633,-152.563,-101.532,-90.274,-68.872,-64.65,-25.491,8.614,-57.008,-20.505,-59.161,57.138,-105.023,-35.251,-65.121,-105.498,-374.162,-147.882,0.0,0.0,217.0,0,1688564518.3028,2023-07-05 15:41:58,Rest
20,0,-33.02,-50.567,-67.505,-55.431,-164.536,-68.23,-74.199,-323.254,0.056,-162.027,-88.339,-10.727,-34.659,-119.957,-212.856,-152.922,-96.308,-81.474,-63.167,-51.778,-17.781,8.093,-57.463,-15.873,-64.225,56.568,-102.868,-34.191,-63.519,-105.905,-375.837,-146.71,0.0,0.0,213.0,0,1688564518.3107,2023-07-05 15:41:58,Rest
21,0,-38.623,-52.566,-72.561,-56.4,-165.909,-73.285,-73.612,-322.931,3.642,-162.89,-92.349,-13.277,-42.309,-127.522,-217.766,-155.843,-89.551,-83.442,-61.567,-48.652,-13.152,8.597,-59.455,-15.858,-61.6,64.196,-105.839,-40.304,-66.017,-106.824,-378.535,-147.587,0.0,0.0,211.0,0,1688564518.3185,2023-07-05 15:41:58,Rest
22,0,-42.682,-65.321,-75.05,-66.078,-176.501,-76.286,-79.174,-329.78,7.737,-164.776,-97.892,-16.338,-43.804,-129.443,-225.233,-164.397,-89.462,-90.019,-65.092,-51.165,-17.237,3.466,-62.982,-21.989,-55.903,66.693,-108.295,-45.387,-70.049,-114.401,-382.767,-155.125,0.0,0.0,214.0,0,1688564518.3264,2023-07-05 15:41:58,Rest
23,0,-45.714,-68.841,-83.172,-80.356,-186.059,-78.771,-86.267,-338.672,3.118,-173.321,-102.405,-22.982,-45.297,-127.777,-230.131,-173.966,-87.836,-92.49,-73.736,-58.798,-25.929,-6.784,-69.066,-28.627,-65.068,56.381,-113.822,-46.366,-77.151,-121.972,-392.118,-166.752,0.0,0.0,216.0,0,1688564518.3342,2023-07-05 15:41:58,Rest
24,0,-48.229,-67.748,-92.31,-82.325,-185.36,-83.815,-88.23,-338.846,2.603,-181.344,-103.327,-25.008,-48.838,-132.26,-235.024,-178.403,-84.162,-95.471,-78.785,-70.523,-33.588,-9.339,-73.096,-30.648,-77.299,48.64,-122.417,-48.369,-80.66,-125.948,-402.484,-176.832,0.0,0.0,210.0,0,1688564518.3421,2023-07-05 15:41:58,Rest
25,0,-50.743,-76.902,-91.193,-78.144,-190.81,-87.83,-92.24,-341.581,8.235,-178.601,-106.81,-25.495,-49.814,-135.714,-235.301,-176.175,-90.737,-102.036,-79.219,-75.063,-43.801,-13.94,-73.535,-37.277,-83.369,44.493,-127.418,-56.006,-81.604,-131.457,-406.693,-179.217,0.0,0.0,212.0,0,1688564518.3499,2023-07-05 15:41:58,Rest
26,0,-60.426,-91.17,-102.373,-91.898,-211.112,-96.963,-104.443,-356.096,2.08,-183.546,-116.437,-33.667,-55.399,-135.578,-225.332,-168.314,-113.188,-104.495,-85.287,-77.549,-51.954,-24.685,-81.658,-46.974,-93.019,29.591,-138.561,-64.659,-90.744,-143.621,-417.045,-187.747,0.0,0.0,195.0,0,1688564518.3579,2023-07-05 15:41:58,Rest
27,0,-64.976,-96.201,-121.738,-112.299,-224.221,-105.576,-108.95,-363.425,-6.632,-196.17,-119.906,-40.293,-59.442,-138.516,-218.447,-160.462,-127.42,-100.293,-85.714,-75.935,-48.316,-20.561,-89.261,-39.755,-94.463,15.729,-148.669,-65.106,-100.387,-156.285,-430.972,-204.977,0.0,0.0,209.0,0,1688564518.3657,2023-07-05 15:41:58,Rest
28,0,-51.079,-84.322,-108.809,-101.94,-211.189,-96.249,-95.008,-349.229,0.547,-187.777,-109.028,-30.006,-49.649,-136.841,-222.327,-161.326,-113.972,-92.508,-73.333,-60.49,-30.849,-4.147,-77.901,-21.272,-76.95,33.644,-134.688,-54.283,-89.528,-146.908,-417.221,-193.502,0.0,0.0,209.0,0,1688564518.3736,2023-07-05 15:41:58,Rest
29,0,-32.585,-60.672,-77.449,-74.174,-187.411,-78.222,-80.569,-328.9,8.231,-165.048,-96.624,-13.07,-39.353,-131.581,-230.814,-168.849,-98.489,-85.755,-65.575,-48.646,-13.912,6.103,-59.893,-9.467,-56.381,66.398,-108.938,-38.859,-72.02,-117.559,-384.016,-160.52,0.0,3254779904.0,213.0,0,1688564518.3814,2023-07-05 15:41:58,Rest
30,0,-30.503,-52.414,-74.298,-72.05,-184.15,-77.631,-79.464,-326.009,5.661,-166.932,-94.99,-11.52,-43.412,-137.597,-242.878,-177.389,-101.977,-88.231,-71.657,-56.282,-17.484,3.536,-61.37,-8.946,-54.276,77.603,-103.706,-34.722,-71.436,-111.806,-373.898,-156.774,0.0,0.0,200.0,0,1688564518.3893,2023-07-05 15:41:58,Rest
31,0,-39.694,-67.731,-88.568,-87.86,-198.311,-86.775,-86.556,-334.905,4.631,-184.696,-104.117,-21.755,-51.566,-149.755,-252.881,-186.434,-106.998,-99.413,-78.246,-65.447,-33.348,-5.689,-73.604,-19.183,-66.004,58.57,-117.435,-46.983,-82.635,-130.138,-386.332,-176.597,0.0,0.0,223.0,0,1688564518.3972,2023-07-05 15:41:58,Rest
32,0,-43.753,-72.786,-89.504,-87.772,-201.698,-87.2,-90.056,-335.082,7.7,-180.925,-109.648,-23.27,-47.928,-148.068,-251.092,-189.833,-102.792,-102.9,-76.631,-62.82,-32.29,-5.684,-75.067,-25.824,-65.938,52.876,-120.391,-52.059,-84.09,-131.032,-387.483,-174.883,3968.0,0.0,0.0,0,1688564518.405,2023-07-05 15:41:58,Rest
33,0,-38.074,-61.443,-82.242,-82.049,-194.324,-82.502,-85.868,-330.649,10.767,-171.01,-104.415,-18.124,-41.732,-140.235,-248.791,-185.545,-101.665,-97.674,-74.505,-60.196,-22.524,2.007,-68.332,-19.65,-57.676,62.044,-113.098,-44.834,-78.37,-120.655,-381.972,-165.487,3840.0,0.0,0.0,0,1688564518.4129,2023-07-05 15:41:58,Rest
34,0,-39.572,-64.967,-85.234,-89.651,-198.741,-83.957,-86.294,-333.392,14.342,-183.134,-106.36,-22.716,-47.838,-143.169,-251.616,-184.847,-108.735,-102.7,-78.529,-64.234,-30.699,-4.143,-71.338,-23.217,-64.278,56.859,-121.694,-51.962,-81.878,-127.194,-387.738,-173.518,3968.0,0.0,0.0,0,1688564518.4208,2023-07-05 15:41:58,Rest
35,0,-48.754,-75.661,-94.37,-96.734,-208.788,-92.07,-94.917,-337.669,14.84,-190.124,-115.988,-30.891,-55.475,-148.661,-249.828,-187.736,-115.799,-105.671,-80.499,-65.707,-34.254,-12.848,-78.951,-33.44,-72.923,50.655,-138.479,-62.668,-87.944,-135.264,-391.961,-180.517,3712.0,0.0,0.0,0,1688564518.4287,2023-07-05 15:41:58,Rest
36,0,-46.656,-72.511,-93.251,-96.637,-206.53,-91.978,-96.359,-338.868,14.313,-177.126,-111.773,-27.274,-49.784,-146.463,-247.529,-183.962,-114.659,-95.319,-71.71,-56.42,-16.801,-1.052,-75.286,-19.574,-61.067,58.289,-135.267,-51.847,-85.294,-133.079,-384.397,-176.751,4096.0,0.0,0.0,0,1688564518.4365,2023-07-05 15:41:58,Rest
37,0,-38.925,-69.877,-85.986,-95.004,-203.762,-84.714,-88.578,-338.53,15.835,-175.412,-102.952,-20.586,-44.099,-141.706,-247.281,-179.68,-107.884,-91.637,-65.49,-49.703,-9.1,11.244,-69.063,-5.722,-53.321,62.841,-128.984,-44.111,-81.111,-133.459,-376.84,-174.525,3840.0,0.0,0.0,0,1688564518.4444,2023-07-05 15:41:58,Rest
38,0,-42.985,-76.467,-87.949,-95.421,-208.682,-87.703,-87.465,-336.654,16.844,-186.507,-107.46,-23.64,-49.69,-143.614,-245.497,-184.623,-108.288,-100.255,-71.06,-55.289,-18.825,5.597,-72.067,-21.598,-64.026,59.192,-140.125,-55.337,-83.591,-136.399,-380.562,-178.448,3968.0,0.0,0.0,0,1688564518.4522,2023-07-05 15:41:58,Rest
39,0,-52.163,-80.489,-94.009,-99.936,-213.596,-97.861,-96.599,-339.391,16.827,-181.198,-114.012,-30.276,-55.276,-149.105,-250.887,-189.049,-118.939,-106.302,-80.211,-63.431,-26.49,-1.58,-80.192,-34.384,-70.622,59.133,-148.182,-62.454,-87.606,-138.824,-387.866,-183.393,3968.0,0.0,0.0,0,1688564518.4601,2023-07-05 15:41:58,Rest
40,0,-53.136,-81.434,-93.403,-104.447,-213.382,-99.812,-101.113,-344.175,16.81,-172.307,-114.923,-33.832,-55.221,-153.055,-258.321,-186.299,-131.627,-111.319,-86.278,-67.466,-32.099,1.495,-84.211,-30.251,-70.039,58.049,-146.497,-61.88,-90.08,-140.222,-386.453,-186.796,3968.0,0.0,0.0,0,1688564518.4679,2023-07-05 15:41:58,Rest
41,0,-48.984,-83.914,-93.821,-103.83,-214.194,-97.151,-96.401,-339.22,13.207,-179.819,-112.247,-33.286,-55.166,-153.414,-253.452,-182.526,-140.205,-114.794,-85.679,-66.886,-33.604,8.154,-83.102,-29.709,-68.945,53.893,-147.888,-63.867,-91.014,-139.57,-381.456,-187.121,3968.0,0.0,0.0,0,1688564518.4758,2023-07-05 15:41:58,Rest
42,0,-50.472,-87.928,-98.851,-106.288,-219.102,-98.591,-93.743,-336.319,12.682,-185.787,-109.06,-32.74,-54.598,-153.261,-250.124,-184.905,-139.04,-113.655,-82.52,-64.77,-28.447,9.17,-80.457,-31.728,-67.851,52.814,-151.326,-66.365,-91.948,-143.016,-384.661,-190.52,3840.0,0.0,0.0,0,1688564518.4837,2023-07-05 15:41:58,Rest
43,0,-54.52,-91.426,-101.313,-111.305,-222.982,-102.078,-100.309,-340.081,18.305,-180.991,-111.513,-36.806,-55.056,-154.644,-254.997,-189.331,-133.266,-113.029,-84.999,-67.779,-29.956,6.599,-83.963,-32.721,-70.345,55.323,-150.662,-67.835,-92.881,-146.459,-385.301,-194.428,3840.0,0.0,0.0,0,1688564518.4916,2023-07-05 15:41:58,Rest
44,0,-53.953,-89.798,-99.163,-107.095,-220.71,-103.001,-102.258,-334.618,21.873,-174.662,-114.988,-37.794,-57.562,-149.367,-250.131,-182.994,-136.719,-110.866,-87.475,-68.736,-34.537,6.593,-85.416,-34.737,-69.762,62.44,-146.925,-67.255,-92.788,-142.727,-373.644,-188.599,3968.0,0.0,0.0,0,1688564518.4994,2023-07-05 15:41:58,Rest
45,0,-51.85,-87.659,-94.453,-101.865,-217.927,-99.824,-95.496,-326.599,23.388,-167.315,-110.262,-32.633,-53.919,-141.02,-239.123,-172.565,-138.631,-104.608,-80.216,-58.933,-27.842,10.685,-78.67,-29.58,-62.008,69.037,-143.705,-65.651,-90.133,-141.56,-367.635,-183.287,3840.0,0.0,0.0,0,1688564518.5073,2023-07-05 15:41:58,Rest
46,0,-53.335,-92.695,-93.846,-104.837,-223.857,-97.675,-95.913,-330.883,25.926,-163.049,-109.639,-33.625,-52.84,-144.978,-238.884,-172.905,-135.419,-100.405,-75.525,-53.239,-25.765,13.235,-79.616,-25.964,-61.946,64.358,-146.122,-69.171,-91.58,-148.59,-372.391,-189.251,3968.0,0.0,0.0,0,1688564518.5151,2023-07-05 15:41:58,Rest
47,0,-54.306,-97.213,-98.363,-109.855,-229.269,-102.188,-100.94,-332.602,23.851,-166.472,-115.165,-35.64,-58.935,-149.956,-238.645,-172.22,-146.554,-96.718,-76.986,-57.796,-31.887,12.71,-86.709,-30.549,-68.031,60.707,-148.026,-71.664,-94.562,-149.979,-370.994,-193.673,3968.0,0.0,0.0,0,1688564518.523,2023-07-05 15:41:58,Rest
48,0,-51.69,-94.042,-99.289,-112.819,-226.99,-102.598,-98.278,-324.584,21.265,-170.917,-110.951,-32.018,-55.29,-142.634,-229.185,-158.215,-164.338,-93.035,-73.323,-55.177,-33.392,12.697,-83.036,-31.03,-66.939,65.257,-143.779,-67.494,-91.394,-145.218,-365.5,-188.356,3968.0,0.0,0.0,0,1688564518.5308,2023-07-05 15:41:58,Rest
49,0,-48.053,-88.824,-95.092,-113.219,-226.251,-94.811,-93.569,-322.21,25.855,-169.721,-104.18,-29.937,-43.451,-137.88,-224.857,-151.397,-168.272,-93.967,-68.639,-52.56,-33.871,15.758,-77.83,-27.926,-66.36,65.704,-140.049,-65.889,-86.692,-140.974,-362.573,-183.045,3968.0,0.0,0.0,0,1688564518.5387,2023-07-05 15:41:58,Rest
50,0,-44.931,-86.174,-93.46,-110.032,-225.512,-93.179,-91.426,-318.302,30.44,-164.941,-104.589,-28.37,-41.871,-139.279,-230.78,-158.418,-163.493,-93.873,-70.619,-59.68,-35.886,19.329,-77.752,-26.873,-67.318,63.077,-136.835,-66.336,-87.118,-138.784,-354.526,-182.349,3968.0,0.0,0.0,0,1688564518.5466,2023-07-05 15:41:58,Rest
51,0,-41.3,-83.014,-89.268,-106.848,-219.651,-95.648,-86.724,-307.738,30.409,-160.165,-101.41,-24.244,-45.415,-135.042,-233.111,-163.895,-151.034,-93.779,-74.135,-60.645,-34.314,16.748,-73.576,-24.285,-61.615,65.063,-131.575,-63.195,-84.469,-139.157,-346.999,-177.556,3840.0,0.0,0.0,0,1688564518.5545,2023-07-05 15:41:58,Rest
52,0,-40.746,-80.882,-86.105,-108.79,-218.919,-92.478,-84.588,-305.381,29.354,-158.468,-98.235,-26.781,-44.858,-133.882,-231.341,-168.854,-132.953,-99.833,-77.647,-58.535,-35.304,12.633,-71.966,-24.773,-60.017,66.023,-131.444,-64.669,-79.774,-139.531,-347.164,-174.817,4096.0,0.0,0.0,0,1688564518.5623,2023-07-05 15:41:58,Rest
53,0,-46.341,-83.875,-90.117,-111.755,-224.848,-93.923,-87.065,-308.149,29.325,-159.334,-102.235,-31.365,-47.887,-139.896,-231.622,-170.734,-135.381,-105.369,-79.619,-64.112,-38.342,12.62,-77.017,-27.309,-62.518,65.957,-131.825,-66.654,-84.305,-138.366,-348.354,-180.278,3840.0,0.0,0.0,0,1688564518.5702,2023-07-05 15:41:58,Rest
54,0,-50.905,-85.84,-90.539,-109.594,-225.648,-97.415,-88.514,-301.181,31.857,-160.199,-100.596,-29.797,-49.888,-139.243,-228.828,-160.83,-154.713,-102.189,-76.977,-62.511,-34.206,13.12,-74.89,-21.134,-55.796,68.452,-127.594,-61.976,-88.319,-136.691,-348.518,-180.61,3584.0,0.0,0.0,0,1688564518.5781,2023-07-05 15:41:58,Rest
55,0,-46.756,-78.07,-83.276,-105.898,-222.861,-89.633,-84.84,-295.757,34.387,-157.99,-93.835,-27.718,-43.178,-135.006,-221.94,-148.373,-165.83,-96.964,-70.753,-53.227,-27.511,15.156,-68.668,-15.478,-46.518,73.507,-122.856,-58.328,-81.57,-132.456,-345.095,-172.232,3840.0,0.0,0.0,0,1688564518.5859,2023-07-05 15:41:58,Rest
56,0,-44.66,-71.332,-78.582,-104.768,-219.052,-83.908,-80.656,-296.486,35.889,-151.684,-94.766,-25.128,-40.573,-135.895,-219.156,-143.614,-170.274,-95.33,-67.096,-52.661,-27.484,20.264,-68.599,-18.024,-44.935,75.995,-119.147,-57.758,-76.878,-128.737,-335.016,-168.474,3968.0,0.0,0.0,0,1688564518.5938,2023-07-05 15:41:58,Rest
57,0,-50.25,-74.334,-80.553,-108.249,-218.32,-90.996,-82.625,-295.164,35.853,-148.971,-97.745,-23.566,-45.656,-138.833,-221.498,-143.983,-174.203,-96.772,-69.59,-57.219,-30.53,16.145,-70.067,-18.006,-48.476,73.87,-118.003,-58.212,-80.9,-132.195,-331.095,-170.354,3968.0,0.0,0.0,0,1688564518.6016,2023-07-05 15:41:58,Rest
58,0,-50.713,-75.797,-83.034,-113.264,-224.25,-92.442,-86.129,-293.845,35.305,-154.97,-96.623,-26.616,-48.684,-141.256,-225.375,-150.499,-170.955,-98.724,-75.156,-57.675,-31.524,7.42,-69.485,-16.963,-51.501,72.259,-120.959,-63.277,-82.868,-132.063,-333.326,-171.209,3968.0,0.0,0.0,0,1688564518.6096,2023-07-05 15:41:58,Rest
59,0,-45.539,-72.647,-82.438,-113.151,-226.075,-86.202,-82.456,-292.014,36.294,-159.425,-97.551,-25.565,-48.123,-143.164,-228.736,-158.545,-162.587,-99.65,-74.569,-58.129,-30.468,5.875,-69.928,-20.02,-49.913,75.773,-117.764,-64.751,-78.174,-124.758,-324.796,-168.476,3968.0,0.0,0.0,0,1688564518.6174,2023-07-05 15:41:58,Rest
60,0,-49.079,-75.648,-80.819,-111.501,-222.263,-88.165,-80.837,-288.136,37.795,-159.266,-99.503,-22.466,-51.661,-144.558,-227.483,-156.338,-164.473,-102.624,-74.494,-58.071,-30.438,3.308,-71.907,-19.488,-46.277,80.308,-113.548,-60.587,-79.121,-127.195,-315.761,-167.795,3968.0,0.0,0.0,0,1688564518.6253,2023-07-05 15:41:58,Rest
61,0,-55.69,-83.77,-87.911,-118.562,-230.237,-95.249,-86.904,-290.409,34.171,-160.644,-102.477,-29.616,-57.757,-148.512,-226.743,-149.009,-184.801,-107.645,-79.03,-55.964,-28.87,-6.429,-75.934,-20.493,-48.28,81.252,-119.582,-65.65,-88.776,-137.314,-322.618,-176.337,3968.0,0.0,0.0,0,1688564518.6331,2023-07-05 15:41:58,Rest
62,0,-58.196,-89.321,-96.02,-126.128,-240.253,-99.765,-90.915,-295.242,32.6,-159.458,-105.961,-36.758,-56.675,-148.363,-228.053,-150.909,-192.301,-107.537,-79.464,-55.395,-27.817,-9.497,-79.444,-25.596,-53.867,75.535,-128.172,-75.83,-92.785,-140.763,-329.98,-185.894,3968.0,0.0,0.0,0,1688564518.641,2023-07-05 15:41:58,Rest
63,0,-59.675,-90.769,-92.85,-122.415,-235.914,-99.665,-91.849,-289.824,39.74,-150.59,-104.83,-34.672,-51.495,-139.506,-225.264,-157.418,-170.08,-104.868,-76.823,-57.902,-31.375,-6.413,-78.34,-25.57,-55.862,70.337,-130.093,-75.242,-88.082,-137.548,-326.576,-181.61,3968.0,0.0,0.0,0,1688564518.6488,2023-07-05 15:41:58,Rest
64,0,-59.103,-86.067,-84.56,-117.682,-228.506,-94.955,-90.22,-279.8,44.823,-147.365,-99.09,-32.588,-51.443,-135.78,-221.965,-155.724,-159.663,-103.226,-78.795,-55.794,-31.856,-3.333,-72.114,-21.446,-49.659,77.439,-126.889,-71.581,-84.92,-133.825,-321.127,-169.645,0.0,0.0,222.0,0,1688564518.6567,2023-07-05 15:41:58,Rest
65,0,-54.945,-78.297,-78.84,-116.028,-226.228,-90.761,-82.445,-273.885,42.217,-150.292,-96.941,-30.507,-53.954,-140.767,-223.28,-148.908,-176.41,-100.562,-77.179,-50.103,-25.164,0.256,-69.993,-16.814,-37.826,87.095,-118.053,-68.948,-82.786,-131.129,-314.658,-164.352,0.0,0.0,228.0,0,1688564518.6645,2023-07-05 15:41:58,Rest
66,0,-52.329,-75.144,-76.2,-114.375,-222.928,-91.183,-79.801,-271.562,40.638,-146.555,-98.381,-27.402,-52.363,-142.676,-223.056,-146.198,-182.893,-98.924,-71.979,-52.102,-25.139,2.818,-72.996,-13.211,-37.276,84.447,-112.812,-65.293,-79.629,-130.486,-311.269,-165.725,0.0,0.0,212.0,0,1688564518.6725,2023-07-05 15:41:58,Rest
67,0,-50.227,-71.483,-77.148,-112.723,-221.169,-90.067,-84.332,-267.704,42.134,-141.798,-95.209,-25.326,-49.749,-138.947,-217.71,-141.953,-180.149,-98.313,-70.882,-56.661,-32.286,4.352,-70.874,-15.759,-44.923,78.214,-116.285,-64.203,-79.549,-126.769,-311.47,-165.559,0.0,0.0,227.0,0,1688564518.6803,2023-07-05 15:41:58,Rest
68,0,-44.029,-62.702,-71.948,-106.975,-215.824,-81.268,-74.002,-251.555,45.166,-139.095,-83.331,-16.079,-40.99,-130.099,-208.271,-131.565,-179.456,-88.993,-65.176,-47.383,-24.569,15.618,-59.02,-11.133,-37.194,83.259,-108.484,-59.015,-73.322,-115.372,-303.474,-158.734,0.0,0.0,123.0,0,1688564518.6882,2023-07-05 15:41:58,Rest
69,0,-35.276,-52.393,-59.58,-97.134,-200.752,-69.916,-53.436,-232.86,50.756,-126.148,-71.977,-3.767,-27.116,-119.722,-196.792,-118.113,-173.129,-77.121,-54.865,-35.04,-7.639,29.947,-49.74,4.248,-20.25,95.984,-90.445,-47.686,-59.416,-103.985,-292.412,-146.792,0.0,0.0,227.0,0,1688564518.696,2023-07-05 15:41:58,Rest
70,0,-36.265,-52.341,-59.009,-97.55,-200.038,-72.407,-57.993,-236.213,53.267,-116.8,-76.516,-10.424,-31.7,-121.652,-193.009,-107.749,-191.912,-81.142,-60.445,-43.714,-8.143,25.819,-56.35,4.244,-19.718,99.986,-88.817,-49.687,-61.919,-104.906,-294.169,-145.62,0.0,0.0,224.0,0,1688564518.7039,2023-07-05 15:41:58,Rest
71,0,-52.111,-69.195,-74.831,-112.309,-223.405,-89.753,-80.989,-254.932,47.578,-133.077,-94.37,-30.393,-53.185,-136.899,-206.136,-120.449,-214.774,-97.455,-74.73,-58.015,-22.48,8.887,-71.15,-14.204,-32.506,90.152,-103.586,-66.544,-79.787,-118.633,-305.146,-159.819,0.0,0.0,223.0,0,1688564518.7117,2023-07-05 15:41:58,Rest
72,0,-63.842,-83.983,-86.027,-126.029,-237.013,-98.885,-88.08,-264.411,41.383,-147.801,-102.985,-37.023,-59.792,-142.398,-224.885,-152.604,-181.771,-101.968,-77.216,-58.982,-27.58,2.218,-77.227,-19.313,-40.67,80.328,-111.167,-74.162,-87.905,-128.249,-314.062,-170.93,0.0,98304.0,210.0,0,1688564518.7196,2023-07-05 15:41:58,Rest
73,0,-61.216,-79.8,-85.941,-126.928,-230.116,-93.663,-82.869,-260.561,41.854,-141.506,-97.246,-31.863,-52.56,-135.083,-230.296,-171.919,-148.802,-95.719,-72.528,-58.411,-27.041,6.314,-74.076,-17.756,-43.703,78.199,-112.08,-74.088,-84.231,-123.51,-315.285,-167.173,0.0,65536.0,197.0,0,1688564518.7274,2023-07-05 15:41:58,Rest
74,0,-60.13,-78.696,-82.269,-123.727,-229.374,-94.082,-84.835,-251.079,45.91,-141.364,-98.174,-33.88,-57.631,-138.534,-226.991,-164.063,-167.096,-95.623,-72.968,-63.475,-34.186,6.82,-74.514,-25.423,-46.734,75.559,-111.968,-77.6,-84.146,-119.8,-309.847,-163.42,0.0,0.0,209.0,0,1688564518.7354,2023-07-05 15:41:58,Rest
75,0,-61.607,-84.765,-79.113,-125.652,-232.219,-98.598,-86.8,-245.192,47.401,-149.42,-102.174,-36.92,-64.233,-147.617,-228.301,-162.362,-180.761,-97.064,-74.944,-63.412,-37.225,8.35,-76.489,-23.349,-44.125,78.045,-106.733,-75.985,-88.673,-122.754,-299.803,-167.355,0.0,0.0,216.0,0,1688564518.7433,2023-07-05 15:41:58,Rest
76,0,-55.91,-78.02,-76.984,-122.965,-223.789,-91.84,-80.565,-241.361,46.842,-144.147,-94.9,-28.174,-53.41,-140.81,-226.536,-162.712,-160.6,-90.819,-72.82,-58.738,-28.991,21.15,-71.289,-10.518,-35.372,88.726,-96.892,-68.737,-86.535,-116.996,-290.282,-164.114,0.0,0.0,217.0,0,1688564518.7511,2023-07-05 15:41:58,Rest
77,0,-53.293,-73.844,-75.883,-118.744,-218.955,-88.674,-76.898,-235.484,48.332,-137.855,-89.169,-28.146,-46.697,-132.984,-215.551,-147.18,-176.834,-86.118,-68.649,-57.142,-25.376,27.276,-67.12,-9.482,-32.263,88.637,-92.697,-69.693,-80.813,-111.756,-287.43,-156.777,0.0,0.0,221.0,0,1688564518.7589,2023-07-05 15:41:58,Rest
78,0,-60.412,-83.504,-77.856,-122.723,-227.445,-97.295,-81.945,-237.298,49.82,-140.791,-97.277,-38.364,-57.409,-138.999,-211.749,-139.86,-200.735,-91.667,-70.117,-58.622,-30.474,18.027,-72.688,-17.67,-37.354,77.277,-98.24,-76.283,-84.318,-117.792,-287.655,-161.744,0.0,0.0,211.0,0,1688564518.7668,2023-07-05 15:41:58,Rest
79,0,-57.79,-78.809,-76.241,-121.576,-226.193,-95.148,-83.912,-241.159,49.77,-136.04,-102.303,-32.178,-58.376,-139.372,-215.636,-148.942,-180.042,-96.186,-75.17,-59.075,-29.419,17.497,-74.152,-16.115,-35.267,77.712,-98.141,-75.182,-84.746,-114.6,-279.682,-161.07,0.0,0.0,218.0,0,1688564518.7747,2023-07-05 15:41:58,Rest
80,0,-47.998,-64.386,-70.018,-113.258,-214.184,-83.782,-74.094,-226.061,51.258,-127.194,-97.077,-22.412,-49.096,-133.085,-214.396,-149.305,-169.616,-94.041,-74.07,-55.43,-23.242,27.726,-66.906,-10.464,-28.572,86.344,-87.797,-69.472,-75.952,-101.678,-266.595,-148.613,0.0,0.0,211.0,0,1688564518.7825,2023-07-05 15:41:58,Rest
81,0,-51.024,-70.981,-72.509,-118.78,-217.043,-87.797,-72.483,-214.564,51.206,-128.604,-99.03,-32.123,-54.17,-135.514,-213.669,-141.984,-193.012,-94.459,-72.972,-56.399,-27.829,21.038,-67.863,-16.089,-31.617,81.647,-91.808,-73.501,-79.463,-108.236,-266.841,-153.588,0.0,0.0,216.0,0,1688564518.7904,2023-07-05 15:41:58,Rest
82,0,-58.658,-81.669,-80.633,-128.907,-226.048,-96.931,-80.608,-221.522,47.057,-132.062,-105.591,-38.239,-62.825,-136.915,-209.869,-138.255,-202.553,-96.926,-78.022,-63.515,-39.072,7.697,-75.992,-24.27,-39.27,70.807,-104.524,-82.649,-90.654,-118.374,-272.209,-167.266,0.0,0.0,199.0,0,1688564518.7983,2023-07-05 15:41:58,Rest
83,0,-55.013,-76.976,-76.967,-124.68,-219.674,-92.223,-77.453,-217.202,48.034,-124.757,-100.874,-29.491,-56.614,-130.118,-200.438,-132.994,-196.715,-92.731,-77.432,-62.939,-38.521,12.812,-72.843,-20.147,-34.108,72.785,-97.247,-81.029,-82.366,-108.01,-259.642,-160.951,0.0,0.0,217.0,0,1688564518.8062,2023-07-05 15:41:58,Rest
84,0,-52.396,-75.363,-71.767,-121.481,-215.356,-88.545,-73.277,-206.226,52.085,-120.022,-97.699,-33.048,-57.07,-131.525,-201.774,-133.373,-196.006,-88.54,-70.694,-56.729,-33.871,15.873,-67.134,-17.053,-26.901,77.835,-88.953,-77.874,-76.136,-103.291,-247.599,-155.155,0.0,0.0,213.0,0,1688564518.814,2023-07-05 15:41:58,Rest
85,0,-60.541,-83.996,-80.916,-130.581,-226.924,-96.141,-84.475,-212.168,49.983,-126.562,-107.848,-43.261,-67.772,-137.541,-207.208,-139.9,-194.273,-91.013,-72.673,-58.721,-39.473,5.611,-73.727,-25.745,-31.485,68.024,-99.622,-87.018,-89.38,-114.458,-253.499,-164.221,0.0,0.0,212.0,0,1688564518.8219,2023-07-05 15:41:58,Rest
86,0,-63.554,-82.376,-81.86,-131.475,-228.234,-96.044,-84.39,-210.419,47.372,-126.948,-108.765,-39.119,-64.63,-134.33,-197.779,-135.662,-193.567,-88.36,-74.137,-62.249,-36.872,5.093,-74.166,-26.232,-34.527,62.32,-98.498,-91.029,-88.778,-112.807,-254.27,-162.008,0.0,0.0,214.0,0,1688564518.8297,2023-07-05 15:41:58,Rest
87,0,-51.195,-72.047,-70.507,-124.684,-216.222,-85.702,-69.961,-193.302,51.935,-115.55,-99.947,-31.395,-53.295,-125.999,-190.409,-125.28,-191.324,-81.612,-65.866,-59.113,-20.954,15.334,-63.845,-11.861,-22.197,74.553,-81.493,-80.18,-75.37,-102.448,-243.257,-151.6,0.0,0.0,217.0,0,1688564518.8376,2023-07-05 15:41:58,Rest
88,0,-45.509,-73.512,-69.925,-125.071,-216.519,-84.08,-68.354,-187.473,54.957,-111.848,-102.921,-30.339,-51.704,-122.799,-193.293,-124.642,-181.399,-80.505,-63.238,-51.369,-14.785,18.393,-62.757,-5.189,-10.392,81.139,-78.338,-74.976,-78.368,-101.321,-241.989,-154.01,0.0,0.0,210.0,0,1688564518.8454,2023-07-05 15:41:58,Rest
89,0,-52.635,-79.074,-76.002,-125.971,-222.962,-88.094,-70.335,-187.798,54.902,-116.859,-107.941,-29.797,-51.14,-122.164,-186.952,-122.468,-180.705,-78.376,-65.737,-45.682,-17.332,16.838,-65.256,-6.721,-9.87,75.422,-77.747,-77.463,-78.802,-98.658,-243.284,-156.93,0.0,0.0,212.0,0,1688564518.8533,2023-07-05 15:41:58,Rest
90,0,-54.12,-74.896,-75.926,-127.382,-219.665,-85.444,-66.679,-182.487,53.823,-116.743,-104.759,-28.742,-49.04,-122.554,-181.642,-114.661,-194.869,-77.785,-66.183,-52.296,-19.364,13.235,-64.166,-5.689,-14.983,71.761,-71.01,-79.435,-72.576,-96.51,-239.455,-153.699,0.0,0.0,196.0,0,1688564518.8612,2023-07-05 15:41:58,Rest
91,0,-53.041,-76.358,-79.949,-131.865,-219.446,-87.408,-73.272,-180.256,49.158,-116.114,-111.826,-35.374,-56.163,-131.14,-190.682,-116.596,-209.531,-85.392,-72.265,-65.052,-28.566,2.463,-70.762,-14.393,-22.14,66.054,-81.185,-87.04,-82.237,-106.147,-243.826,-159.693,0.0,0.0,210.0,0,1688564518.8691,2023-07-05 15:41:58,Rest
92,0,-58.111,-83.454,-85.504,-130.709,-225.886,-94.493,-79.859,-174.952,47.06,-117.534,-119.912,-39.949,-61.742,-138.694,-194.589,-120.065,-214.445,-85.819,-76.291,-64.474,-39.808,-4.2,-73.765,-25.649,-25.704,59.84,-90.837,-94.125,-88.815,-111.677,-247.681,-163.632,0.0,0.0,210.0,0,1688564518.8769,2023-07-05 15:41:58,Rest
93,0,-53.442,-75.686,-78.759,-125.455,-220.025,-87.226,-70.557,-162.482,50.599,-112.294,-107.496,-32.224,-55.533,-129.846,-184.149,-115.847,-203.984,-76.511,-66.993,-53.652,-34.645,-1.122,-62.933,-17.427,-20.555,61.829,-74.865,-88.908,-76.43,-99.27,-227.966,-152.71,0.0,0.0,214.0,0,1688564518.8848,2023-07-05 15:41:58,Rest
94,0,-43.143,-66.901,-70.996,-124.817,-211.096,-78.43,-64.339,-153.61,54.134,-106.034,-99.704,-26.045,-51.379,-121.007,-178.841,-114.706,-190.46,-74.898,-59.242,-51.036,-24.364,-0.608,-59.284,-6.651,-13.875,63.817,-63.519,-81.647,-72.256,-90.461,-201.098,-146.921,0.0,0.0,200.0,0,1688564518.8926,2023-07-05 15:41:58,Rest
95,0,-45.661,-75.031,-75.535,-126.229,-214.983,-85.524,-67.861,-153.969,53.056,-110.026,-106.777,-30.629,-55.938,-125.497,-186.347,-120.739,-186.683,-76.36,-61.744,-52.522,-21.778,-6.755,-64.86,-11.767,-11.812,58.63,-69.604,-82.078,-77.819,-96.006,-196.798,-151.898,0.0,0.0,223.0,0,1688564518.9005,2023-07-05 15:41:58,Rest
96,0,-49.201,-75.981,-78.534,-126.103,-216.817,-88.512,-67.793,-152.79,49.929,-110.428,-104.621,-31.623,-55.37,-123.322,-188.722,-124.205,-175.738,-72.185,-60.657,-50.933,-22.781,-9.31,-62.233,-13.805,-11.8,56.522,-67.485,-83.02,-75.179,-97.447,-198.65,-152.258,3968.0,0.0,0.0,0,1688564518.9083,2023-07-05 15:41:58,Rest
97,0,-46.078,-66.683,-73.332,-124.44,-210.965,-83.3,-65.676,-145.978,50.391,-98.535,-97.856,-26.981,-48.655,-112.952,-181.874,-121.007,-165.829,-72.113,-57.523,-50.882,-22.246,-6.227,-59.609,-10.717,-14.862,57.49,-60.245,-83.449,-74.592,-92.226,-183.595,-148.007,3968.0,0.0,0.0,0,1688564518.9162,2023-07-05 15:41:58,Rest
98,0,-50.643,-74.814,-76.845,-127.902,-216.902,-90.389,-69.709,-146.344,50.341,-96.899,-103.906,-30.54,-51.68,-115.913,-179.643,-114.226,-184.106,-75.115,-63.101,-53.905,-23.248,-7.758,-64.673,-14.805,-18.433,51.285,-64.283,-86.44,-82.202,-96.233,-174.702,-150.933,3968.0,0.0,0.0,0,1688564518.9242,2023-07-05 15:41:58,Rest
99,0,-53.154,-84.985,-84.965,-139.045,-224.369,-96.447,-73.225,-150.296,47.729,-111.659,-106.364,-34.096,-56.239,-121.945,-181.512,-111.55,-192.119,-70.941,-66.112,-54.363,-22.713,-8.774,-66.145,-14.79,-15.853,46.623,-65.243,-88.403,-82.632,-98.698,-180.163,-152.319,3840.0,0.0,0.0,0,1688564518.932,2023-07-05 15:41:58,Rest
100,0,-44.904,-70.043,-74.634,-135.832,-213.899,-86.104,-65.98,-138.363,49.218,-111.548,-95.499,-28.938,-48.498,-115.675,-177.744,-114.512,-163.75,-64.21,-56.312,-48.161,-16.03,-1.593,-61.468,-4.529,-9.177,53.236,-54.42,-83.703,-73.84,-86.816,-168.2,-141.921,4096.0,0.0,0.0,0,1688564518.9399,2023-07-05 15:41:58,Rest
101,0,-38.711,-58.702,-61.239,-120.839,-202.927,-80.383,-58.229,-124.904,53.779,-94.018,-90.793,-23.786,-43.327,-114.023,-178.079,-116.959,-152.315,-62.609,-49.083,-41.453,-13.453,5.581,-57.821,1.623,-6.607,57.794,-45.144,-74.91,-69.156,-78.02,-147.539,-131.533,3840.0,0.0,0.0,0,1688564518.9477,2023-07-05 15:41:58,Rest
102,0,-42.259,-68.377,-70.399,-126.354,-208.871,-86.962,-63.294,-130.415,50.652,-93.411,-96.337,-25.3,-53.529,-122.106,-185.586,-118.892,-170.606,-65.62,-56.206,-45.51,-22.148,1.477,-60.324,-3.501,-7.625,50.051,-46.636,-76.372,-75.746,-85.114,-147.391,-136.012,3840.0,0.0,0.0,0,1688564518.9556,2023-07-05 15:41:58,Rest
103,0,-47.852,-75.481,-83.137,-142.109,-217.372,-90.974,-72.452,-133.358,47.015,-107.663,-99.315,-31.422,-59.111,-124.545,-187.962,-121.847,-178.632,-70.678,-62.298,-58.272,-30.323,-9.283,-67.436,-13.232,-11.715,44.366,-51.2,-88.591,-83.355,-93.226,-149.293,-146.634,3968.0,0.0,0.0,0,1688564518.9634,2023-07-05 15:41:58,Rest
104,0,-51.902,-74.893,-81.517,-139.405,-215.617,-92.932,-73.917,-124.516,49.017,-106.53,-98.703,-37.026,-57.515,-121.859,-185.724,-120.188,-181.015,-73.169,-60.186,-63.337,-31.317,-14.909,-73.517,-20.903,-17.851,45.346,-54.735,-97.724,-84.296,-94.158,-140.947,-147.0,3840.0,0.0,0.0,0,1688564518.9713,2023-07-05 15:41:58,Rest
105,0,-56.974,-81.991,-85.534,-141.315,-216.939,-100.011,-76.404,-125.928,47.431,-98.739,-102.19,-42.624,-62.581,-121.225,-185.539,-120.58,-187.494,-75.145,-64.224,-60.2,-32.311,-18.481,-75.492,-23.956,-22.957,39.153,-59.291,-101.213,-88.311,-97.137,-141.318,-149.927,3968.0,0.0,0.0,0,1688564518.9791,2023-07-05 15:41:58,Rest
106,0,-60.503,-88.569,-93.645,-152.444,-224.919,-103.498,-79.402,-131.437,41.748,-102.739,-104.137,-47.705,-64.567,-116.493,-182.279,-123.533,-176.036,-74.045,-69.796,-59.115,-32.278,-22.048,-75.929,-27.006,-24.983,32.454,-62.305,-105.21,-93.858,-101.651,-141.689,-156.949,3840.0,0.0,0.0,0,1688564518.9871,2023-07-05 15:41:58,Rest
107,0,-56.344,-82.333,-86.891,-146.657,-222.645,-98.783,-75.224,-122.084,42.731,-101.612,-97.886,-45.096,-55.794,-108.18,-175.949,-120.336,-161.003,-67.311,-64.09,-58.544,-29.685,-16.903,-73.804,-26.467,-22.396,38.057,-56.095,-101.006,-87.104,-96.426,-126.179,-149.62,3840.0,0.0,0.0,0,1688564518.9949,2023-07-05 15:41:58,Rest
108,0,-49.115,-74.053,-77.583,-134.727,-208.59,-91.512,-71.05,-109.155,47.299,-91.264,-94.202,-38.903,-54.201,-106.022,-176.798,-115.605,-162.891,-64.682,-60.44,-56.948,-29.655,-7.153,-70.656,-19.78,-17.763,39.043,-45.793,-92.708,-79.844,-84.547,-113.245,-139.224,3968.0,0.0,0.0,0,1688564519.0028,2023-07-05 15:41:59,Rest
109,0,-51.115,-77.053,-84.678,-141.764,-206.332,-92.958,-74.565,-108.021,48.277,-93.222,-102.817,-43.475,-62.856,-114.113,-183.793,-120.612,-168.876,-74.351,-68.064,-58.428,-34.748,-8.682,-73.147,-20.273,-19.282,30.807,-45.235,-97.227,-87.962,-83.438,-111.594,-143.696,3968.0,0.0,0.0,0,1688564519.0106,2023-07-05 15:41:59,Rest
110,0,-58.749,-83.124,-91.765,-149.307,-216.372,-101.574,-80.126,-114.061,46.179,-103.375,-109.886,-53.165,-70.478,-123.733,-190.27,-129.201,-171.781,-85.035,-74.144,-65.542,-40.349,-11.747,-77.685,-29.986,-22.849,28.727,-48.264,-105.839,-94.534,-90.526,-107.384,-148.675,3968.0,0.0,0.0,0,1688564519.0185,2023-07-05 15:41:59,Rest
111,0,-56.641,-79.455,-85.526,-141.986,-213.594,-101.472,-79.534,-110.873,45.621,-103.271,-105.678,-52.6,-75.018,-129.757,-195.202,-132.145,-175.195,-86.487,-75.607,-70.087,-42.358,-5.588,-77.095,-29.956,-18.216,32.797,-42.58,-101.634,-89.316,-87.362,-96.519,-144.428,3968.0,0.0,0.0,0,1688564519.0263,2023-07-05 15:41:59,Rest
112,0,-48.9,-71.178,-78.78,-132.11,-196.986,-92.149,-72.282,-91.294,50.186,-93.947,-98.4,-44.862,-72.381,-130.652,-195.52,-129.964,-173.996,-84.351,-72.97,-67.968,-40.779,-1.484,-71.382,-22.754,-13.587,35.838,-35.365,-95.897,-83.079,-78.053,-84.127,-140.697,3968.0,0.0,0.0,0,1688564519.0342,2023-07-05 15:41:59,Rest
113,0,-43.728,-68.545,-76.652,-128.392,-190.129,-87.959,-63.5,-75.834,52.185,-84.631,-92.154,-40.207,-61.551,-124.886,-187.127,-120.613,-176.383,-80.681,-67.261,-66.875,-42.787,-3.532,-67.725,-23.244,-15.622,36.827,-34.817,-98.363,-79.41,-77.975,-76.87,-136.97,3968.0,0.0,0.0,0,1688564519.0421,2023-07-05 15:41:59,Rest
114,0,-45.733,-71.551,-75.551,-131.849,-194.55,-91.457,-64.462,-78.832,50.596,-80.448,-90.012,-42.216,-56.878,-114.515,-175.157,-107.172,-187.477,-75.99,-69.756,-74.493,-48.892,-5.577,-71.243,-28.343,-17.656,33.716,-38.881,-100.826,-79.33,-80.971,-76.281,-136.834,3968.0,0.0,0.0,0,1688564519.05,2023-07-05 15:41:59,Rest
115,0,-51.323,-75.578,-77.012,-133.767,-196.405,-94.439,-72.594,-84.9,52.594,-76.269,-93.508,-46.784,-59.895,-107.74,-167.809,-99.892,-191.901,-74.889,-74.809,-76.468,-51.405,-10.183,-72.709,-28.827,-17.126,35.732,-38.842,-101.75,-83.349,-79.865,-72.619,-141.307,3968.0,0.0,0.0,0,1688564519.0578,2023-07-05 15:41:59,Rest
116,0,-51.784,-78.576,-78.472,-132.096,-195.184,-93.32,-72.009,-79.692,53.054,-71.582,-91.878,-47.25,-59.835,-103.534,-162.519,-94.67,-189.147,-71.74,-67.049,-67.682,-44.693,-13.759,-68.538,-28.799,-15.572,42.868,-34.192,-102.673,-85.828,-78.761,-61.788,-140.654,4096.0,0.0,0.0,0,1688564519.0657,2023-07-05 15:41:59,Rest
117,0,-54.806,-84.645,-85.566,-143.235,-202.161,-94.764,-69.888,-81.15,46.341,-79.707,-92.811,-51.301,-60.8,-103.43,-160.819,-92.013,-192.032,-70.132,-66.47,-69.151,-44.649,-17.843,-75.129,-35.942,-22.729,29.505,-39.281,-109.742,-89.84,-87.391,-64.287,-146.149,3968.0,0.0,0.0,0,1688564519.0736,2023-07-05 15:41:59,Rest
118,0,-73.706,-105.053,-106.997,-167.17,-220.914,-110.038,-87.749,-98.999,39.122,-96.022,-109.112,-67.131,-77.133,-114.085,-165.781,-102.68,-196.963,-81.844,-84.847,-84.451,-61.51,-35.244,-92.473,-52.3,-43.711,-2.799,-62.296,-130.637,-107.169,-109.846,-85.74,-172.642,3840.0,33554432.0,0.0,0,1688564519.0814,2023-07-05 15:41:59,Rest
119,0,-85.928,-118.78,-120.21,-175.2,-232.476,-121.711,-102.006,-105.56,37.546,-98.999,-119.761,-75.773,-89.351,-122.168,-167.152,-112.311,-192.668,-90.984,-89.885,-85.904,-70.67,-46.479,-95.966,-61.982,-55.45,-17.654,-74.529,-142.802,-117.82,-122.543,-92.826,-186.302,3840.0,0.0,0.0,0,1688564519.0892,2023-07-05 15:41:59,Rest
120,0,-66.887,-98.169,-101.647,-157.094,-212.776,-106.22,-83.461,-81.889,40.583,-86.093,-103.76,-60.841,-74.917,-114.874,-158.788,-98.879,-183.766,-76.036,-70.84,-66.35,-50.619,-29.014,-82.038,-43.989,-32.853,3.369,-49.864,-121.655,-99.772,-99.879,-63.532,-160.5,3968.0,0.0,0.0,0,1688564519.0971,2023-07-05 15:41:59,Rest
121,0,-41.717,-69.381,-71.832,-135.932,-182.849,-83.573,-60.323,-55.167,48.739,-73.711,-85.213,-43.361,-59.473,-106.562,-156.58,-86.484,-176.41,-59.566,-57.449,-53.989,-27.515,-9.518,-67.099,-17.817,-1.057,36.153,-17.026,-92.844,-77.643,-68.529,-30.681,-127.552,3968.0,3321888768.0,0.0,0,1688564519.1049,2023-07-05 15:41:59,Rest
122,0,-39.114,-64.189,-60.489,-129.648,-175.494,-79.391,-60.775,-46.915,55.863,-65.441,-84.616,-41.269,-65.562,-111.066,-166.67,-97.156,-167.012,-61.556,-57.391,-53.935,-28.0,-7.971,-59.347,-13.701,7.653,51.998,-6.763,-89.165,-75.003,-61.288,-16.818,-117.179,3968.0,0.0,0.0,0,1688564519.1129,2023-07-05 15:41:59,Rest
123,0,-40.611,-63.612,-64.527,-134.129,-176.343,-79.311,-62.764,-42.257,56.319,-58.715,-88.117,-41.74,-67.033,-114.029,-171.114,-103.719,-155.062,-62.007,-56.309,-53.368,-31.558,-8.476,-59.8,-16.761,4.06,47.336,-7.781,-92.149,-75.441,-63.276,-10.141,-119.111,3968.0,0.0,0.0,0,1688564519.1208,2023-07-05 15:41:59,Rest
124,0,-31.861,-55.864,-62.926,-137.069,-166.945,-71.035,-50.405,-36.067,56.775,-54.046,-79.832,-35.55,-54.67,-103.669,-163.258,-95.419,-148.759,-54.26,-52.155,-53.315,-24.866,-4.369,-57.691,-10.084,5.08,43.702,0.424,-83.348,-67.681,-58.602,-2.446,-115.405,3968.0,0.0,0.0,0,1688564519.1286,2023-07-05 15:41:59,Rest
125,0,-29.268,-55.808,-58.252,-140.006,-165.754,-68.402,-45.232,-37.056,58.768,-54.504,-71.043,-31.929,-52.054,-94.343,-156.435,-88.663,-146.049,-52.157,-52.102,-59.409,-27.403,-8.463,-51.486,-12.636,2.001,36.998,4.01,-81.728,-66.076,-54.445,-0.395,-114.265,3968.0,0.0,0.0,0,1688564519.1365,2023-07-05 15:41:59,Rest
126,0,-36.923,-62.925,-66.903,-150.112,-176.346,-76.531,-54.921,-42.654,55.635,-61.622,-78.144,-37.532,-57.125,-95.786,-157.303,-88.574,-143.341,-56.203,-58.198,-62.936,-36.597,-17.676,-58.607,-24.406,-8.759,21.08,-7.265,-94.454,-73.695,-59.513,-2.956,-124.397,3968.0,0.0,0.0,0,1688564519.1443,2023-07-05 15:41:59,Rest
127,0,-44.571,-70.547,-80.668,-159.184,-182.83,-86.701,-66.136,-44.148,50.968,-63.609,-87.288,-45.691,-57.068,-98.764,-157.658,-88.998,-147.808,-59.733,-62.751,-62.873,-36.048,-26.367,-69.306,-26.943,-11.824,13.374,-15.967,-100.507,-79.769,-69.188,-8.076,-134.519,3968.0,0.0,0.0,0,1688564519.1522,2023-07-05 15:41:59,Rest
0,0,-46.576,-75.087,-82.637,-159.537,-185.209,-89.175,-66.07,-43.079,49.893,-56.886,-82.59,-47.695,-56.499,-94.567,-150.328,-83.274,-158.419,-56.087,-59.614,-64.859,-32.938,-30.44,-65.651,-25.892,-8.739,16.435,-10.828,-97.333,-81.226,-74.754,-9.605,-135.921,0.0,0.0,222.0,0,1688564519.16,2023-07-05 15:41:59,Rest
1,0,-44.48,-72.45,-81.017,-159.889,-183.999,-83.963,-59.857,-42.012,49.331,-56.317,-78.409,-46.11,-55.93,-90.374,-139.932,-67.309,-164.408,-49.883,-55.968,-65.819,-34.442,-31.434,-64.048,-28.427,-9.242,12.32,-9.28,-98.772,-81.145,-72.63,-2.423,-136.81,0.0,0.0,228.0,0,1688564519.1679,2023-07-05 15:41:59,Rest
2,0,-44.436,-70.328,-80.424,-159.73,-178.692,-82.855,-58.772,-40.945,47.232,-61.383,-82.429,-48.114,-56.899,-91.82,-135.181,-56.996,-172.441,-50.346,-56.425,-63.192,-34.92,-36.013,-68.595,-28.399,-10.258,9.234,-16.443,-101.235,-80.551,-68.971,4.752,-137.186,0.0,0.0,212.0,0,1688564519.1758,2023-07-05 15:41:59,Rest
3,0,-45.416,-72.82,-75.733,-152.398,-174.927,-85.333,-60.763,-34.756,48.722,-57.223,-81.834,-50.115,-63.502,-94.29,-129.923,-45.668,-203.519,-51.832,-55.344,-61.079,-32.324,-37.002,-64.428,-26.321,-7.174,17.421,-10.792,-98.06,-79.446,-65.316,10.895,-129.364,0.0,0.0,224.0,0,1688564519.1837,2023-07-05 15:41:59,Rest
4,0,-41.784,-65.575,-70.534,-144.561,-169.117,-82.174,-57.628,-22.426,54.308,-50.506,-76.629,-48.528,-65.488,-95.733,-118.01,-12.834,-235.591,-46.657,-51.702,-56.92,-24.094,-29.792,-62.314,-20.147,2.567,25.601,5.613,-92.839,-76.293,-59.615,23.692,-120.525,0.0,98304.0,123.0,0,1688564519.1915,2023-07-05 15:41:59,Rest
5,0,-34.57,-53.214,-67.902,-141.342,-159.214,-77.481,-53.472,-13.695,55.791,-48.406,-76.552,-45.405,-65.422,-102.297,-116.355,-6.162,-232.282,-46.098,-49.089,-50.203,-15.873,-25.664,-65.838,-10.393,12.811,26.6,14.317,-86.598,-74.167,-52.383,35.963,-115.282,0.0,0.0,226.0,0,1688564519.1994,2023-07-05 15:41:59,Rest
6,0,-32.999,-54.185,-64.76,-138.639,-154.444,-75.867,-52.394,-13.681,53.174,-45.797,-79.037,-43.823,-72.017,-109.879,-137.243,-38.431,-199.262,-53.737,-52.114,-50.665,-17.907,-28.712,-61.162,-11.407,11.261,25.549,16.864,-82.925,-71.531,-47.208,41.563,-109.019,0.0,98304.0,224.0,0,1688564519.2072,2023-07-05 15:41:59,Rest
7,0,-34.502,-57.717,-63.671,-139.013,-154.802,-74.254,-52.341,-16.229,53.633,-49.337,-77.421,-42.754,-72.457,-108.745,-153.5,-70.668,-166.275,-55.732,-56.672,-53.688,-21.475,-30.22,-55.977,-17.031,5.615,22.962,19.409,-84.892,-67.874,-47.161,44.083,-108.397,0.0,98304.0,223.0,0,1688564519.2151,2023-07-05 15:41:59,Rest
8,0,-33.956,-55.61,-66.169,-141.948,-156.696,-73.155,-50.24,-14.163,55.116,-54.923,-70.172,-41.687,-59.064,-95.316,-145.662,-50.105,-171.232,-45.943,-52.005,-49.536,-14.281,-27.629,-56.946,-13.428,8.171,18.84,18.365,-85.831,-68.83,-48.65,44.551,-114.949,0.0,0.0,211.0,0,1688564519.2229,2023-07-05 15:41:59,Rest
9,0,-32.897,-59.141,-69.689,-143.343,-159.101,-74.107,-48.653,-6.977,54.036,-44.622,-66.003,-40.108,-48.247,-79.852,-126.561,-28.025,-185.405,-32.065,-41.194,-46.925,-12.218,-22.99,-54.84,-10.853,7.65,9.6,15.785,-84.721,-71.835,-51.676,43.482,-117.395,0.0,0.0,197.0,0,1688564519.2308,2023-07-05 15:41:59,Rest
10,0,-32.864,-61.643,-71.156,-142.175,-157.917,-72.495,-48.604,-4.921,54.495,-32.282,-66.449,-36.995,-44.613,-70.038,-112.602,-21.337,-180.096,-22.299,-38.079,-49.44,-17.329,-19.381,-53.76,-13.916,2.007,2.93,15.257,-85.149,-68.177,-55.722,44.975,-116.253,0.0,0.0,208.0,0,1688564519.2387,2023-07-05 15:41:59,Rest
11,0,-31.294,-54.409,-66.986,-141.52,-151.099,-67.812,-43.945,-6.453,56.489,-35.323,-61.772,-34.396,-39.445,-63.82,-102.755,-0.311,-195.798,-15.616,-35.992,-43.243,-11.164,-18.337,-52.17,-9.292,8.665,8.563,21.389,-80.965,-65.548,-51.056,52.103,-113.063,0.0,0.0,216.0,0,1688564519.2465,2023-07-05 15:41:59,Rest
12,0,-27.165,-49.232,-60.772,-139.842,-146.337,-61.597,-34.167,-0.811,56.433,-31.702,-53.001,-31.288,-33.258,-57.096,-92.406,18.644,-210.971,-6.892,-26.222,-32.953,-1.931,-12.683,-43.921,-1.085,19.927,16.751,33.663,-72.175,-63.433,-39.734,63.321,-104.753,0.0,0.0,217.0,0,1688564519.2544,2023-07-05 15:41:59,Rest
13,0,-20.477,-45.084,-54.563,-130.48,-138.507,-55.387,-29.522,11.485,61.5,-15.789,-47.313,-27.67,-31.175,-52.428,-80.531,26.823,-209.736,-2.274,-20.048,-28.822,-2.441,-3.962,-39.266,2.502,22.469,21.345,42.339,-65.955,-55.173,-32.522,74.529,-94.402,0.0,0.0,220.0,0,1688564519.2623,2023-07-05 15:41:59,Rest
14,0,-14.309,-32.743,-43.238,-116.005,-123.511,-51.234,-28.98,21.72,69.635,-8.601,-43.167,-24.569,-34.218,-54.938,-71.741,43.702,-228.481,-7.907,-22.077,-25.719,-4.488,-3.445,-37.69,3.524,25.52,29.521,49.469,-58.717,-46.921,-25.829,87.774,-83.55,0.0,0.0,211.0,0,1688564519.2701,2023-07-05 15:41:59,Rest
15,0,-13.27,-24.001,-34.485,-109.742,-115.191,-48.108,-23.316,26.821,67.004,-7.055,-42.611,-23.007,-40.331,-61.543,-72.182,55.954,-250.282,-15.071,-24.617,-27.743,-6.533,-3.442,-32.017,4.545,30.105,33.59,58.641,-54.559,-44.824,-19.144,98.445,-71.171,0.0,0.0,218.0,0,1688564519.278,2023-07-05 15:41:59,Rest
16,0,-12.745,-23.465,-33.939,-109.12,-113.539,-45.499,-18.169,28.844,61.814,-5.511,-44.618,-23.497,-42.34,-65.58,-74.671,50.262,-245.933,-17.618,-24.08,-30.789,-6.526,4.759,-31.985,6.077,28.026,30.994,58.07,-57.579,-41.193,-17.075,100.908,-66.489,0.0,0.0,211.0,0,1688564519.2858,2023-07-05 15:41:59,Rest
17,0,-9.146,-17.806,-29.806,-101.326,-104.716,-43.916,-17.127,33.426,66.363,-2.944,-37.913,-21.424,-39.224,-66.026,-73.059,51.237,-241.589,-18.625,-21.494,-21.536,3.214,13.463,-32.977,9.145,29.535,34.55,57.499,-52.398,-38.591,-13.984,103.881,-67.447,0.0,0.0,216.0,0,1688564519.2937,2023-07-05 15:41:59,Rest
18,0,-9.137,-17.276,-27.727,-98.151,-100.513,-42.336,-14.548,38.515,69.37,3.207,-32.752,-17.816,-37.648,-62.374,-66.839,59.382,-240.323,-15.02,-17.374,-13.318,12.432,15.499,-28.846,9.648,34.116,35.027,62.565,-47.223,-39.577,-12.946,109.412,-68.916,0.0,0.0,200.0,0,1688564519.3016,2023-07-05 15:41:59,Rest
19,0,-14.763,-28.017,-37.433,-108.299,-111.171,-43.83,-17.095,34.378,64.178,5.765,-35.281,-19.335,-29.926,-46.43,-52.94,64.958,-224.201,-2.197,-13.771,-16.891,14.982,18.045,-30.866,8.102,32.545,24.234,56.867,-54.348,-41.074,-22.667,103.668,-77.044,0.0,0.0,216.0,0,1688564519.3095,2023-07-05 15:41:59,Rest
20,0,-18.334,-30.039,-40.982,-112.289,-117.207,-46.86,-20.664,30.246,63.089,6.271,-29.098,-20.341,-14.526,-24.354,-35.468,79.238,-214.243,16.76,-5.56,-10.726,21.627,23.15,-29.298,9.631,32.0,23.185,53.736,-55.83,-42.058,-25.718,98.953,-82.09,0.0,0.0,213.0,0,1688564519.3173,2023-07-05 15:41:59,Rest
21,0,-15.242,-24.373,-35.818,-105.517,-110.942,-43.227,-13.471,35.338,66.612,17.536,-19.848,-12.123,-6.827,-16.646,-29.285,92.991,-215.566,28.014,0.593,3.117,23.654,25.688,-20.048,12.695,31.968,26.236,63.929,-47.578,-39.454,-19.032,105.514,-76.885,0.0,0.0,211.0,0,1688564519.3252,2023-07-05 15:41:59,Rest
22,0,-16.252,-31.009,-40.393,-107.973,-109.807,-40.622,-12.433,37.352,65.009,21.105,-25.975,-12.111,-10.919,-23.801,-34.891,87.263,-212.276,21.839,-5.555,-3.546,11.847,20.027,-25.663,9.096,27.326,14.939,60.279,-50.604,-38.902,-23.112,105.409,-78.345,0.0,0.0,211.0,0,1688564519.3331,2023-07-05 15:41:59,Rest
23,0,-22.895,-36.613,-47.012,-114.525,-114.308,-47.754,-21.642,34.241,61.87,9.3,-29.536,-22.858,-16.031,-25.827,-35.369,85.126,-217.187,13.107,-12.722,-16.35,1.589,11.81,-33.834,3.451,26.274,11.85,52.534,-56.701,-43.474,-26.162,106.328,-83.39,0.0,0.0,216.0,0,1688564519.3409,2023-07-05 15:41:59,Rest
24,0,-20.823,-23.769,-37.744,-105.701,-106.509,-44.12,-14.448,40.867,65.394,14.414,-22.334,-20.273,-18.577,-22.215,-28.673,98.873,-233.364,15.144,-7.586,-11.211,1.076,9.237,-24.067,6.01,31.883,27.72,69.9,-49.472,-38.308,-13.328,125.177,-71.523,0.0,0.0,210.0,0,1688564519.3488,2023-07-05 15:41:59,Rest
25,0,-12.093,-9.913,-22.849,-90.226,-90.008,-30.244,0.423,54.658,69.427,31.306,-18.213,-9.495,-18.558,-25.779,-25.571,104.922,-233.643,18.715,-3.48,-5.052,-0.462,10.765,-16.358,8.565,37.486,41.012,85.199,-41.225,-25.974,-1.02,139.396,-54.033,0.0,0.0,212.0,0,1688564519.3566,2023-07-05 15:41:59,Rest
26,0,-6.958,-4.78,-15.654,-79.89,-79.16,-26.627,0.423,67.411,72.431,34.861,-15.121,-7.436,-18.027,-28.827,-25.545,101.231,-217.527,15.622,-4.501,-6.584,0.05,10.754,-14.805,9.581,43.596,47.631,85.626,-40.16,-20.312,6.666,143.355,-46.807,0.0,0.0,195.0,0,1688564519.3646,2023-07-05 15:41:59,Rest
27,0,-3.365,3.934,-7.954,-71.613,-72.421,-23.015,4.521,77.078,76.97,36.875,-6.909,-4.867,-18.521,-25.724,-25.007,105.228,-211.162,15.606,3.188,0.083,14.395,15.354,-4.544,21.867,55.848,59.879,99.373,-32.435,-16.194,17.418,158.581,-37.539,0.0,0.0,210.0,0,1688564519.3724,2023-07-05 15:41:59,Rest
28,0,2.786,13.152,-1.286,-67.955,-65.176,-14.282,15.787,80.075,78.43,43.498,-4.34,2.31,-16.454,-28.26,-24.47,114.857,-220.173,22.763,13.431,10.841,35.897,27.122,-0.953,36.702,69.112,70.065,117.204,-18.57,-9.005,25.597,173.792,-27.255,0.0,0.0,210.0,0,1688564519.3803,2023-07-05 15:41:59,Rest
29,0,5.857,13.139,-4.358,-74.035,-63.062,-13.243,17.308,79.994,75.79,41.406,-6.385,3.333,-11.314,-31.818,-20.347,122.939,-223.026,31.45,11.881,14.929,47.645,34.779,-4.538,41.788,73.142,64.359,117.087,-13.428,-7.972,28.645,174.643,-30.302,0.0,0.0,214.0,0,1688564519.3881,2023-07-05 15:41:59,Rest
30,0,2.778,4.416,-9.989,-80.621,-70.683,-16.816,15.242,78.89,73.665,39.315,-4.33,2.817,-7.717,-22.052,-12.13,124.865,-210.508,34.492,11.356,12.865,45.548,32.695,-1.972,42.259,64.872,49.438,109.798,-18.538,-12.062,26.568,170.37,-39.493,0.0,0.0,201.0,0,1688564519.396,2023-07-05 15:41:59,Rest
31,0,-2.861,-4.81,-16.127,-87.712,-79.322,-20.898,13.69,72.151,70.517,36.202,-2.276,0.253,-2.586,-11.271,-5.458,126.277,-204.662,37.019,14.419,6.192,39.354,28.564,-5.556,37.606,53.536,40.167,105.077,-23.13,-16.661,17.319,165.589,-46.113,0.0,0.0,223.0,0,1688564519.4038,2023-07-05 15:41:59,Rest
32,0,-4.907,-6.854,-21.746,-92.748,-82.828,-24.976,10.09,69.005,68.397,33.604,-3.298,-4.358,3.564,-4.088,1.72,137.422,-210.093,45.691,13.38,3.624,34.704,24.949,-11.698,28.859,48.872,35.516,102.41,-25.669,-19.718,13.716,164.398,-50.678,3968.0,0.0,0.0,0,1688564519.4117,2023-07-05 15:41:59,Rest
33,0,-2.853,0.837,-16.602,-87.02,-78.135,-19.827,13.666,77.645,75.501,43.304,-2.271,-2.305,4.585,5.138,7.866,144.457,-205.784,50.769,13.879,9.768,31.596,19.801,-4.514,26.781,48.823,35.481,106.919,-26.155,-15.6,22.412,171.919,-44.992,4096.0,0.0,0.0,0,1688564519.4195,2023-07-05 15:41:59,Rest
34,0,-0.801,8.521,-7.363,-78.736,-68.835,-12.635,20.825,85.252,79.524,50.433,2.855,2.308,5.605,4.62,6.834,139.189,-200.455,43.546,14.377,8.221,23.88,12.609,1.638,27.779,50.311,40.568,112.447,-23.055,-9.949,29.561,179.431,-35.213,3968.0,0.0,0.0,0,1688564519.4275,2023-07-05 15:41:59,Rest
35,0,4.835,13.636,-3.77,-77.632,-60.569,-11.086,23.365,90.802,73.297,45.772,10.024,3.843,9.698,-2.044,8.876,147.247,-212.038,39.916,10.777,0.016,14.634,7.986,0.099,26.214,52.822,43.089,116.945,-17.909,-6.865,34.655,187.449,-31.079,4096.0,0.0,0.0,0,1688564519.4353,2023-07-05 15:41:59,Rest
36,0,13.54,22.844,2.894,-71.919,-52.312,-1.341,32.051,104.544,76.298,56.485,17.699,12.036,12.25,8.716,22.7,167.08,-216.437,48.585,16.401,4.115,14.62,11.564,9.321,32.336,56.868,46.12,126.05,-11.231,1.339,45.891,202.118,-21.827,4096.0,0.0,0.0,0,1688564519.4432,2023-07-05 15:41:59,Rest
37,0,16.6,26.919,10.063,-61.601,-44.575,4.808,38.167,110.075,81.857,67.699,21.267,16.122,10.189,9.732,27.288,166.913,-208.023,50.586,21.508,11.795,21.265,16.675,14.434,37.426,59.372,49.148,130.535,-6.609,6.461,49.944,206.527,-14.633,3968.0,0.0,0.0,0,1688564519.451,2023-07-05 15:41:59,Rest
38,0,12.997,20.232,4.418,-65.126,-47.092,-6.467,29.419,102.792,74.603,52.774,15.611,8.422,-1.605,-15.381,11.379,152.401,-212.938,38.752,14.314,5.636,22.781,14.097,4.174,33.803,59.313,47.562,126.818,-9.677,-2.255,45.795,200.685,-22.303,3968.0,0.0,0.0,0,1688564519.4589,2023-07-05 15:41:59,Rest
39,0,13.497,22.774,3.389,-69.159,-49.606,-6.461,28.878,105.763,74.528,47.599,11.497,8.926,-8.263,-22.025,7.269,155.322,-221.435,38.713,17.886,7.167,33.004,15.62,4.682,41.966,64.377,50.076,132.839,-6.593,-3.79,51.385,209.706,-21.768,3968.0,0.0,0.0,0,1688564519.4667,2023-07-05 15:41:59,Rest
40,0,20.143,32.997,13.119,-58.844,-39.823,6.866,40.632,117.441,86.237,68.556,19.682,19.163,5.578,-2.536,24.68,172.073,-209.942,56.605,35.287,23.554,55.0,29.949,16.973,58.83,75.583,54.124,141.928,5.709,5.948,60.043,222.304,-8.426,3968.0,0.0,0.0,0,1688564519.4746,2023-07-05 15:41:59,Rest
41,0,18.074,24.767,5.934,-59.81,-41.832,1.223,35.98,112.712,83.076,71.561,22.224,16.07,16.33,3.615,33.877,179.586,-203.585,64.233,35.764,25.067,57.507,31.968,12.857,54.16,69.872,39.725,134.613,2.629,3.38,51.786,209.786,-18.664,3968.0,0.0,0.0,0,1688564519.4824,2023-07-05 15:41:59,Rest
42,0,8.834,11.422,-11.491,-75.631,-59.209,-11.586,23.137,102.866,74.796,57.657,15.029,6.832,9.654,4.123,36.405,185.042,-222.336,59.046,25.994,12.746,40.543,18.104,3.111,37.712,51.872,23.292,122.696,-11.718,-7.382,38.414,192.67,-38.113,4224.0,0.0,0.0,0,1688564519.4904,2023-07-05 15:41:59,Rest
43,0,8.313,16.022,-10.454,-78.117,-58.125,-6.963,27.724,111.985,81.382,62.722,19.625,11.436,13.743,19.488,55.836,205.861,-245.68,68.721,31.603,17.345,42.039,20.647,8.743,41.261,54.894,28.904,127.696,-8.632,-3.788,39.4,201.699,-33.464,4096.0,0.0,0.0,0,1688564519.4982,2023-07-05 15:41:59,Rest
44,0,14.965,20.616,-3.784,-71.379,-44.747,-1.321,36.918,124.168,85.911,71.881,31.389,16.035,29.098,30.74,71.149,221.025,-246.972,81.46,41.306,31.672,55.317,29.848,13.857,50.441,66.11,32.973,136.278,-0.939,2.876,47.558,212.256,-26.258,4096.0,0.0,0.0,0,1688564519.5061,2023-07-05 15:41:59,Rest
45,0,14.95,18.034,-2.756,-67.722,-44.702,-0.807,38.418,120.97,82.239,69.76,30.845,13.458,26.508,29.172,66.98,211.582,-227.257,76.255,38.703,34.202,53.213,23.671,12.306,41.169,60.408,26.793,134.604,-4.524,3.385,52.121,208.97,-27.257,4096.0,0.0,0.0,0,1688564519.5139,2023-07-05 15:41:59,Rest
46,0,15.447,25.189,6.981,-55.871,-41.584,6.366,38.892,120.337,85.743,77.375,29.789,16.006,18.797,29.143,68.45,208.809,-217.808,72.081,37.639,30.581,47.012,21.598,16.905,35.493,60.348,35.987,139.593,-0.934,7.993,59.753,216.445,-13.91,3968.0,0.0,0.0,0,1688564519.5218,2023-07-05 15:41:59,Rest
47,0,22.604,36.946,18.757,-44.032,-28.222,14.556,42.439,134.049,90.268,90.105,36.932,20.088,24.926,33.212,75.041,219.871,-225.275,77.644,41.7,30.551,53.113,30.285,22.523,46.216,73.095,47.735,153.798,8.801,13.62,68.403,235.697,-2.113,4096.0,0.0,0.0,0,1688564519.5297,2023-07-05 15:41:59,Rest
48,0,26.68,37.422,16.177,-46.037,-27.169,15.054,48.032,142.111,90.178,90.015,37.92,20.068,27.974,33.691,69.843,211.966,-218.902,75.005,41.146,32.057,58.183,30.767,20.452,50.78,74.559,45.638,156.718,9.817,12.582,71.921,240.584,-6.209,3968.0,0.0,0.0,0,1688564519.5375,2023-07-05 15:41:59,Rest
49,0,23.579,34.311,14.624,-46.503,-28.679,14.527,51.058,139.408,92.649,87.876,37.369,23.122,22.823,31.608,65.162,195.873,-195.117,69.807,37.519,34.074,57.1,31.249,21.968,48.68,72.947,47.129,153.487,11.856,13.594,72.361,237.27,-5.178,4096.0,0.0,0.0,0,1688564519.5454,2023-07-05 15:41:59,Rest
50,0,23.043,37.35,19.22,-38.772,-21.99,16.561,45.884,142.342,95.118,93.936,41.943,25.148,23.825,29.527,65.097,193.115,-180.577,72.811,41.58,34.552,60.629,44.025,26.045,54.779,80.047,50.668,155.895,17.48,17.166,74.338,242.668,0.975,3968.0,0.0,0.0,0,1688564519.5533,2023-07-05 15:41:59,Rest
51,0,25.07,37.313,16.639,-38.221,-22.993,17.057,42.764,144.761,92.461,95.891,40.876,21.537,27.9,29.498,61.446,189.848,-177.835,79.91,50.76,32.469,68.765,53.203,23.457,58.823,77.917,40.371,156.252,14.901,15.1,73.239,244.474,-5.686,4096.0,0.0,0.0,0,1688564519.5612,2023-07-05 15:41:59,Rest
52,0,24.532,32.152,10.987,-44.843,-28.605,15.503,47.845,141.031,85.197,90.16,38.786,22.028,29.409,35.104,64.971,190.171,-177.145,86.49,54.808,33.461,70.233,55.199,21.897,55.178,68.618,31.621,152.51,12.324,13.036,71.629,238.082,-14.902,4096.0,0.0,0.0,0,1688564519.569,2023-07-05 15:41:59,Rest
53,0,24.508,33.145,12.001,-45.31,-23.454,14.463,50.871,141.914,83.062,91.094,44.383,25.592,33.478,41.729,75.664,204.838,-186.702,90.502,55.777,37.014,69.138,56.681,25.461,56.66,69.062,36.713,154.919,16.411,14.56,75.143,239.381,-12.326,4096.0,0.0,0.0,0,1688564519.5769,2023-07-05 15:41:59,Rest
54,0,28.069,38.747,15.575,-39.117,-15.746,18.547,50.307,148.945,88.614,96.639,48.437,26.079,38.567,43.736,78.15,214.367,-199.835,90.924,59.82,37.489,72.143,56.624,25.948,59.677,72.066,41.799,159.374,18.443,17.106,79.167,246.314,-5.653,4224.0,0.0,0.0,0,1688564519.5847,2023-07-05 15:41:59,Rest
55,0,29.066,36.147,13.51,-39.59,-16.755,21.602,51.282,148.796,89.55,90.906,44.802,24.003,35.455,40.106,81.146,215.177,-206.807,92.882,58.736,34.89,68.997,51.957,24.897,56.031,70.457,39.196,156.653,15.863,16.065,76.526,246.067,-7.697,3968.0,0.0,0.0,0,1688564519.5926,2023-07-05 15:41:59,Rest
56,0,24.426,31.5,7.349,-48.26,-22.886,14.921,46.107,143.524,81.264,81.594,41.171,18.344,26.71,35.968,87.212,218.548,-212.236,92.277,50.992,33.318,60.731,45.245,21.286,51.876,68.338,32.497,152.398,11.749,13.487,73.888,242.235,-11.788,4096.0,0.0,0.0,0,1688564519.6004,2023-07-05 15:41:59,Rest
57,0,23.889,36.591,7.854,-44.113,-21.326,12.344,43.5,145.429,82.207,90.734,43.692,15.764,26.684,33.883,82.002,213.719,-209.974,87.062,49.917,36.871,63.232,41.613,20.24,52.849,69.806,32.977,159.931,14.299,16.035,78.425,250.19,-6.653,4096.0,0.0,0.0,0,1688564519.6083,2023-07-05 15:41:59,Rest
58,0,30.013,43.215,15.531,-32.799,-10.546,19.504,50.116,151.432,88.785,102.426,47.746,22.92,29.731,35.386,76.285,206.845,-197.469,83.901,54.477,40.42,66.755,42.596,25.855,55.87,75.884,40.116,171.554,21.969,21.142,82.445,260.186,-1.011,4096.0,0.0,0.0,0,1688564519.6162,2023-07-05 15:41:59,Rest
59,0,29.983,40.61,13.978,-38.913,-10.023,21.534,48.529,150.768,85.11,95.664,46.162,22.385,25.603,34.326,84.918,215.347,-204.956,80.743,49.3,36.794,62.077,39.992,26.342,57.351,76.321,36.49,169.333,18.873,18.047,80.313,258.389,-3.059,4096.0,0.0,0.0,0,1688564519.6241,2023-07-05 15:41:59,Rest
60,0,27.392,38.008,9.866,-45.022,-15.136,16.902,39.771,151.129,82.463,91.47,44.579,15.191,23.016,32.754,95.591,231.526,-231.904,77.589,46.689,32.146,65.089,38.415,22.217,58.319,73.683,30.305,165.577,15.268,15.98,80.745,258.13,-1.007,4096.0,0.0,0.0,0,1688564519.6319,2023-07-05 15:41:59,Rest
61,0,31.975,41.044,15.491,-35.756,-9.486,17.909,43.318,157.126,85.455,100.6,48.632,20.811,30.165,37.845,94.983,231.807,-225.012,84.171,56.376,35.7,71.684,47.086,27.318,61.334,79.244,34.374,172.072,24.987,20.062,82.201,264.02,3.093,4096.0,0.0,0.0,0,1688564519.6398,2023-07-05 15:41:59,Rest
62,0,32.968,39.466,15.476,-35.208,-8.451,20.965,50.959,156.457,83.32,100.499,50.633,26.938,33.208,43.442,90.278,212.107,-191.999,92.796,59.394,38.738,68.539,49.6,30.877,60.76,78.141,30.753,170.875,25.474,20.042,78.533,258.633,-0.496,4096.0,65536.0,0.0,0,1688564519.6477,2023-07-05 15:41:59,Rest
63,0,31.91,36.353,10.337,-40.295,-13.566,22.994,48.859,151.689,82.212,97.325,49.558,22.812,35.225,49.034,93.261,204.723,-168.753,97.314,55.236,40.749,67.445,42.891,28.284,57.113,69.866,23.038,163.532,19.301,20.022,78.454,251.714,-0.496,4096.0,0.0,0.0,0,1688564519.6555,2023-07-05 15:41:59,Rest
64,0,37.514,40.927,15.45,-32.571,-3.819,27.069,47.273,154.099,88.79,105.424,55.144,25.863,43.386,58.207,104.951,228.084,-189.077,106.438,60.304,45.319,73.013,44.897,32.867,57.569,74.406,28.65,169.516,25.942,25.125,85.036,258.123,6.165,0.0,0.0,221.0,0,1688564519.6633,2023-07-05 15:41:59,Rest
65,0,36.964,45.497,17.484,-28.952,1.821,27.554,49.787,158.044,90.238,106.344,59.187,29.936,42.831,58.148,109.969,241.176,-207.331,108.893,62.293,44.761,72.428,45.877,35.395,60.073,76.894,30.671,178.056,30.527,25.1,89.562,262.987,6.158,0.0,0.0,226.0,0,1688564519.6712,2023-07-05 15:41:59,Rest
66,0,34.365,45.451,14.905,-30.972,-2.28,25.99,51.274,158.91,87.074,99.577,55.029,23.246,35.615,48.356,100.638,226.59,-201.488,100.075,55.57,39.081,69.282,37.122,31.774,62.062,73.231,30.128,180.439,28.959,25.075,92.034,264.774,8.714,0.0,0.0,212.0,0,1688564519.6792,2023-07-05 15:41:59,Rest
67,0,40.991,51.041,21.55,-24.793,5.919,29.55,51.736,164.899,88.524,103.576,54.974,24.247,35.58,45.234,96.438,221.753,-195.139,98.438,55.515,36.48,67.676,36.572,34.816,63.024,81.867,41.368,188.456,35.59,31.198,95.015,275.267,18.951,0.0,0.0,222.0,0,1688564519.687,2023-07-05 15:41:59,Rest
68,0,41.462,52.527,21.016,-26.818,9.5,30.545,50.147,164.222,87.411,107.571,55.944,28.322,32.983,43.14,98.904,225.117,-199.042,99.364,56.996,32.345,61.46,37.048,34.781,58.863,82.809,41.839,191.854,35.042,29.63,95.945,279.091,19.445,0.0,0.0,123.0,0,1688564519.6948,2023-07-05 15:41:59,Rest
69,0,36.298,48.376,14.847,-33.963,1.293,30.002,49.072,160.471,83.225,101.316,52.814,24.195,29.876,38.998,95.218,217.72,-199.868,93.63,51.304,29.239,59.862,29.839,30.136,58.804,71.968,27.965,188.076,29.372,26.526,95.337,275.225,16.864,0.0,0.0,225.0,0,1688564519.7027,2023-07-05 15:41:59,Rest
70,0,44.458,53.963,24.054,-24.708,8.977,34.583,54.146,168.508,85.191,103.776,58.397,27.757,39.58,44.082,98.197,223.137,-199.156,96.098,51.765,35.87,65.95,29.297,36.253,65.918,79.581,30.499,191.986,38.564,34.697,98.828,283.659,25.044,0.0,0.0,224.0,0,1688564519.7106,2023-07-05 15:41:59,Rest
71,0,45.951,55.958,25.567,-21.097,16.14,35.061,55.117,170.901,85.618,109.82,64.486,32.34,45.176,52.747,110.394,240.845,-205.616,103.686,56.836,40.445,67.421,28.755,37.241,62.265,83.6,34.567,192.819,40.062,35.687,96.679,283.376,22.457,0.0,0.0,222.0,0,1688564519.7184,2023-07-05 15:41:59,Rest
72,0,32.585,41.558,9.147,-37.47,4.341,27.341,45.328,157.41,79.897,102.026,55.712,21.549,37.958,52.182,111.821,240.092,-212.583,102.046,54.73,35.794,64.279,22.579,25.933,51.957,64.561,18.65,178.281,26.702,22.843,87.361,266.186,5.016,0.0,0.0,211.0,0,1688564519.7263,2023-07-05 15:41:59,Rest
73,0,32.04,37.93,5.552,-40.506,0.75,24.24,43.233,155.716,79.305,97.825,51.558,15.892,38.945,51.618,109.147,235.753,-211.858,102.968,54.163,35.245,65.752,24.605,25.395,54.979,61.422,11.46,174.517,26.163,21.283,84.712,262.846,1.425,0.0,0.0,197.0,0,1688564519.7341,2023-07-05 15:41:59,Rest
74,0,40.717,47.626,15.28,-28.17,10.483,28.826,48.825,165.294,83.324,106.436,59.703,23.048,43.517,53.103,115.186,241.665,-209.085,106.451,58.207,39.309,68.76,27.142,31.005,61.072,75.193,23.743,187.15,34.846,30.484,91.8,275.391,12.182,0.0,0.0,206.0,0,1688564519.7421,2023-07-05 15:41:59,Rest
75,0,37.602,47.578,17.314,-23.531,14.571,30.334,47.239,167.69,83.753,109.916,59.131,22.001,38.862,51.001,113.022,241.936,-213.486,103.271,56.1,36.196,64.593,19.943,30.462,55.375,74.093,29.355,191.061,35.836,28.404,93.245,281.263,19.854,0.0,0.0,214.0,0,1688564519.7499,2023-07-05 15:41:59,Rest
76,0,33.466,45.482,18.834,-24.02,16.606,29.792,44.631,167.522,82.645,103.146,52.412,16.343,31.139,43.778,103.175,236.059,-223.519,97.532,52.458,31.549,53.77,17.361,30.431,47.635,66.847,23.69,184.722,32.214,23.765,87.516,279.957,20.859,0.0,0.0,217.0,0,1688564519.7578,2023-07-05 15:41:59,Rest
77,0,32.921,43.899,12.667,-31.168,14.54,23.614,42.537,162.232,81.025,93.822,48.774,12.229,20.862,31.951,102.047,230.187,-228.419,87.189,47.282,27.419,41.421,14.27,24.766,38.878,63.194,13.933,179.415,22.96,23.229,82.818,271.993,10.592,0.0,0.0,220.0,0,1688564519.7656,2023-07-05 15:41:59,Rest
78,0,24.178,29.511,-9.375,-45.994,2.23,12.32,29.687,148.749,76.333,87.068,41.04,2.482,14.181,29.357,108.605,225.859,-226.653,77.88,36.476,18.682,36.256,3.497,10.909,30.643,54.934,-4.012,172.063,14.228,14.496,71.977,258.913,-7.349,0.0,0.0,211.0,0,1688564519.7735,2023-07-05 15:41:59,Rest
79,0,19.544,21.284,-16.025,-46.46,-2.895,8.722,24.022,150.65,75.745,92.616,40.487,1.455,25.437,42.648,120.279,241.002,-231.55,90.097,40.538,22.249,42.88,7.08,10.898,35.223,50.78,-18.352,166.255,18.825,6.797,63.196,256.093,-13.49,0.0,0.0,217.0,0,1688564519.7813,2023-07-05 15:41:59,Rest
80,0,32.332,35.608,-0.64,-34.119,6.842,21.52,37.83,162.795,80.792,105.843,56.84,16.311,41.806,56.438,135.016,266.889,-241.052,108.963,58.429,42.719,59.743,22.954,24.719,48.507,59.439,-10.137,174.798,29.052,18.573,75.428,268.644,-0.156,0.0,0.0,211.0,0,1688564519.7892,2023-07-05 15:41:59,Rest
81,0,46.132,50.941,12.168,-28.961,21.692,34.819,51.112,165.706,82.76,110.348,67.542,26.541,49.448,64.066,140.516,273.794,-237.737,112.44,67.079,54.46,78.127,33.178,34.428,61.267,76.798,14.464,192.042,38.757,33.924,92.771,286.819,20.336,0.0,0.0,216.0,0,1688564519.797,2023-07-05 15:41:59,Rest
82,0,48.647,52.939,19.841,-22.272,29.867,37.858,53.622,171.175,83.702,109.213,67.474,28.051,55.547,69.125,134.74,261.737,-216.495,114.377,68.037,49.795,88.295,38.78,37.468,70.939,87.479,25.72,202.096,49.477,34.402,94.727,296.778,30.05,0.0,0.0,199.0,0,1688564519.805,2023-07-05 15:41:59,Rest
83,0,47.062,51.862,24.432,-15.59,29.325,36.283,50.495,175.615,86.18,113.203,71.505,28.023,53.954,64.957,124.36,248.155,-196.811,115.799,67.969,48.72,89.743,40.278,35.893,69.844,80.22,16.985,198.308,48.403,31.806,90.534,291.358,23.872,0.0,0.0,215.0,0,1688564519.8128,2023-07-05 15:41:59,Rest
84,0,44.965,48.736,15.186,-22.235,25.197,35.222,46.346,167.755,85.069,114.114,68.36,21.847,42.117,55.158,113.989,239.71,-197.638,103.9,61.753,48.671,82.481,37.676,30.222,60.552,71.43,11.333,192.474,39.645,31.262,88.907,282.87,17.701,0.0,0.0,214.0,0,1688564519.8207,2023-07-05 15:41:59,Rest
85,0,41.846,46.638,10.048,-24.262,25.684,33.65,45.787,169.124,83.96,107.852,59.07,17.215,35.927,50.492,114.9,242.032,-211.785,92.013,53.494,37.352,66.517,37.638,28.655,57.418,73.92,15.42,192.282,40.118,28.157,87.793,285.149,22.294,0.0,0.0,210.0,0,1688564519.8285,2023-07-05 15:41:59,Rest
86,0,42.829,51.715,20.796,-11.942,33.343,32.592,48.303,178.176,84.388,110.306,64.134,20.271,34.867,48.905,121.445,249.475,-221.82,90.384,48.318,29.118,52.106,36.576,31.7,52.75,74.359,20.527,194.651,43.664,30.691,91.292,295.11,29.956,0.0,0.0,210.0,0,1688564519.8364,2023-07-05 15:41:59,Rest
87,0,46.372,57.811,28.46,-4.758,43.556,36.658,50.816,179.535,82.254,118.905,68.681,21.788,31.246,44.758,119.274,254.348,-228.258,89.782,45.196,33.187,46.418,35.515,33.205,45.012,73.772,28.704,200.092,43.108,36.808,99.397,306.085,36.074,0.0,0.0,216.0,0,1688564519.8442,2023-07-05 15:41:59,Rest
88,0,46.838,58.265,24.333,-5.778,44.537,38.67,51.79,180.38,81.66,115.712,61.44,19.717,34.288,43.176,118.13,257.68,-235.202,89.692,46.687,32.642,41.761,38.041,32.147,47.529,74.211,30.724,205.527,44.601,36.259,100.322,309.365,35.525,0.0,0.0,209.0,0,1688564519.8521,2023-07-05 15:41:59,Rest
89,0,45.255,53.084,17.649,-7.309,35.271,32.484,48.152,179.175,83.115,112.01,61.891,20.21,40.402,49.793,124.16,258.447,-237.016,95.238,46.128,26.974,43.256,38.003,31.091,51.58,68.501,18.398,200.198,45.069,32.124,93.562,300.347,25.756,0.0,0.0,212.0,0,1688564519.8599,2023-07-05 15:41:59,Rest
90,0,44.185,48.932,14.045,-13.449,31.137,31.427,45.542,170.799,81.495,115.997,69.001,21.726,47.534,62.038,131.72,263.312,-229.607,106.413,51.718,36.168,60.632,40.014,32.084,54.09,70.482,12.232,197.437,45.536,31.579,92.444,298.509,23.169,0.0,0.0,195.0,0,1688564519.8679,2023-07-05 15:41:59,Rest
91,0,44.141,47.859,13.518,-17.022,33.155,37.031,50.108,169.604,107.541,115.368,68.932,21.192,54.146,69.149,136.712,271.758,-218.619,116.553,68.572,51.501,80.039,46.634,33.589,61.72,80.145,15.806,202.362,48.565,32.06,95.425,302.822,26.219,0.0,0.0,210.0,0,1688564519.8757,2023-07-05 15:41:59,Rest
92,0,40.51,44.225,8.382,-14.443,30.048,33.92,48.521,170.971,140.221,113.204,67.839,19.122,49.481,68.055,135.038,265.851,-208.154,116.436,69.528,47.864,85.082,43.001,29.457,60.634,73.917,9.643,195.5,45.442,29.979,86.621,291.248,17.484,0.0,256.0,210.0,0,1688564519.8836,2023-07-05 15:41:59,Rest
93,0,35.859,39.57,4.275,-18.015,27.969,28.251,41.812,165.677,172.869,113.091,66.746,16.541,43.284,66.962,128.243,253.802,-203.335,111.709,57.163,38.082,82.435,36.811,27.891,53.401,67.183,4.51,186.083,41.298,26.875,74.751,282.248,11.831,0.0,256.0,214.0,0,1688564519.8914,2023-07-05 15:41:59,Rest
94,0,35.823,43.116,12.468,-19.534,32.039,32.321,46.381,163.974,205.484,105.805,64.118,16.525,42.729,62.797,128.627,256.109,-207.23,109.036,60.18,39.068,78.767,39.848,31.449,60.52,75.825,12.702,194.094,47.405,28.897,79.799,295.798,21.041,0.0,256.0,200.0,0,1688564519.8993,2023-07-05 15:41:59,Rest
95,0,35.787,49.221,17.066,-12.854,36.106,32.801,47.872,167.397,173.003,103.65,60.98,14.971,32.44,48.389,127.474,256.878,-218.294,99.705,60.12,38.005,66.905,32.636,29.368,59.435,73.7,14.227,199.535,49.407,30.918,84.843,303.187,27.68,0.0,256.0,223.0,0,1688564519.9072,2023-07-05 15:41:59,Rest
96,0,35.239,50.196,14.487,-7.718,42.73,30.719,40.139,169.278,152.85,114.305,57.845,11.37,20.624,40.656,121.711,252.523,-228.321,88.335,44.69,32.844,50.956,17.746,26.265,40.42,62.868,9.089,195.749,42.697,29.35,84.245,297.76,30.726,4096.0,0.0,0.0,0,1688564519.915,2023-07-05 15:41:59,Rest
97,0,40.327,54.245,24.207,-1.051,50.372,38.373,44.197,175.769,185.485,115.215,58.812,13.408,24.19,45.739,130.811,260.979,-229.118,87.734,45.158,33.835,45.782,18.241,31.362,36.793,66.904,14.203,199.652,43.679,33.931,90.309,300.536,37.355,4096.0,256.0,0.0,0,1688564519.9229,2023-07-05 15:41:59,Rest
98,0,41.311,56.24,29.306,2.024,49.809,39.359,49.789,177.643,174.028,106.391,62.851,16.468,28.264,49.279,140.926,268.403,-225.815,89.696,51.773,34.314,49.835,19.759,30.818,44.441,70.423,15.726,202.014,47.222,38.508,90.731,302.797,37.318,4096.0,0.0,0.0,0,1688564519.9308,2023-07-05 15:41:59,Rest
99,0,35.122,50.036,17.493,-4.638,44.636,32.66,44.616,168.243,141.579,110.383,63.813,14.403,29.26,51.791,138.224,268.134,-226.101,93.192,48.135,34.792,57.47,18.715,27.713,43.884,65.742,10.587,197.201,46.15,32.834,83.98,300.445,33.694,4224.0,256.0,0.0,0,1688564519.9387,2023-07-05 15:41:59,Rest
100,0,42.26,54.596,20.549,-2.584,46.641,39.799,51.231,166.538,160.393,118.982,69.897,22.073,46.137,64.547,147.819,284.772,-229.461,107.956,59.358,45.515,73.294,32.016,36.907,53.574,73.361,15.187,203.152,51.739,36.388,90.556,308.342,38.784,4352.0,0.0,0.0,0,1688564519.9465,2023-07-05 15:41:59,Rest
101,0,55.537,64.276,30.775,6.64,53.766,50.518,63.988,174.056,167.405,118.35,82.123,32.297,61.46,77.29,167.651,307.029,-236.917,119.119,73.131,53.667,83.467,40.181,44.043,66.328,80.46,18.758,210.633,61.933,47.622,96.613,313.669,41.819,4096.0,0.0,0.0,0,1688564519.9544,2023-07-05 15:41:59,Rest
102,0,49.846,59.088,21.01,2.023,53.712,45.857,57.264,174.907,143.671,118.744,82.553,27.654,54.739,74.652,172.095,311.333,-250.0,116.438,65.373,49.002,76.211,32.456,38.875,60.114,72.182,8.493,202.738,61.359,42.451,88.32,306.183,37.166,3968.0,0.0,0.0,0,1688564519.9622,2023-07-05 15:41:59,Rest
103,0,40.063,53.394,16.891,-0.028,51.61,42.225,49.009,173.707,150.7,124.261,75.298,23.015,50.073,70.479,169.361,306.411,-249.237,116.834,62.746,46.392,73.573,29.35,38.324,55.956,69.549,7.46,197.412,59.249,37.286,87.719,301.266,33.031,4096.0,0.0,0.0,0,1688564519.9701,2023-07-05 15:41:59,Rest
104,0,46.17,57.439,26.096,9.193,54.119,45.769,55.108,175.583,157.209,125.161,75.735,27.091,56.171,72.457,168.679,301.494,-234.643,119.279,70.368,51.469,81.184,28.296,39.823,64.609,77.676,18.724,202.85,62.263,44.421,89.168,300.965,34.534,3840.0,0.0,0.0,0,1688564519.9779,2023-07-05 15:41:59,Rest
105,0,47.661,53.795,23.508,4.573,54.578,42.137,53.516,168.747,139.121,121.45,75.147,22.453,48.942,67.774,162.875,296.581,-234.921,110.45,64.662,48.856,72.906,16.485,36.197,63.008,75.549,17.68,200.598,61.176,41.815,79.858,300.151,35.525,4096.0,0.0,0.0,0,1688564519.9858,2023-07-05 15:41:59,Rest
106,0,38.904,50.155,18.874,-2.604,51.962,39.021,46.29,164.48,140.519,121.329,70.973,17.307,35.574,58.997,160.663,295.773,-245.445,103.167,58.45,39.073,55.927,10.833,35.648,52.698,68.813,11.515,196.299,58.554,35.625,82.852,303.95,34.977,4352.0,0.0,0.0,0,1688564519.9937,2023-07-05 15:41:59,Rest
107,0,42.964,60.864,27.052,6.62,59.082,47.691,52.904,173.537,145.501,122.232,73.976,22.413,38.612,57.913,164.601,293.94,-240.076,104.601,61.977,40.571,57.92,17.482,37.662,51.621,72.843,18.676,206.861,64.13,44.811,97.113,312.355,41.089,4224.0,0.0,0.0,0,1688564520.0016,2023-07-05 15:42:00,Rest
108,0,50.093,68.487,31.123,14.298,68.757,54.815,59.511,177.462,134.597,122.11,78.513,24.44,44.721,60.417,164.436,289.035,-229.59,105.521,60.378,52.313,66.572,20.026,40.186,55.668,78.406,24.292,215.876,67.14,50.402,99.065,314.604,49.758,4096.0,0.0,0.0,0,1688564520.0094,2023-07-05 15:42:00,Rest
109,0,40.821,62.783,26.994,11.21,66.126,49.638,53.304,168.063,136.512,122.5,74.848,20.829,40.065,63.43,162.735,287.721,-232.946,103.366,59.806,50.212,68.042,16.42,40.146,54.588,76.79,17.096,207.463,61.438,44.204,92.306,308.142,46.634,4096.0,0.0,0.0,0,1688564520.0173,2023-07-05 15:42:00,Rest
110,0,31.559,54.011,20.307,5.051,56.839,43.953,46.078,162.26,135.863,120.328,69.65,19.272,41.05,65.929,160.523,286.921,-238.861,102.751,63.332,39.403,67.974,15.379,34.982,47.361,70.566,7.857,199.571,57.79,39.036,86.579,301.174,36.341,3968.0,0.0,0.0,0,1688564520.0251,2023-07-05 15:42:00,Rest
111,0,33.577,50.884,14.139,-0.589,54.22,43.909,47.569,161.073,122.92,116.109,69.068,18.74,46.644,64.838,157.801,288.684,-239.647,105.722,60.195,40.388,66.369,18.95,33.411,45.264,66.397,6.312,200.396,59.269,38.485,81.881,301.385,34.768,4096.0,0.0,0.0,0,1688564520.033,2023-07-05 15:42:00,Rest
112,0,33.543,54.419,16.174,2.485,55.703,42.328,52.645,161.424,125.358,117.53,75.147,21.795,49.159,69.896,167.377,299.666,-245.043,113.301,59.622,46.496,66.303,20.98,37.988,52.904,66.33,8.355,200.196,60.747,40.496,81.799,303.133,35.245,4096.0,0.0,0.0,0,1688564520.0408,2023-07-05 15:42:00,Rest
113,0,29.411,53.34,15.133,4.532,54.11,39.724,52.08,164.336,125.233,120.487,78.146,23.31,51.672,77.511,178.993,311.149,-256.068,116.774,62.637,45.424,69.822,18.91,35.388,56.949,68.826,8.859,197.434,60.174,40.455,79.668,299.243,31.112,4096.0,0.0,0.0,0,1688564520.0487,2023-07-05 15:42:00,Rest
114,0,30.406,49.188,12.556,1.966,55.593,41.733,46.392,163.66,111.275,120.366,74.481,18.676,50.083,71.286,175.227,313.912,-261.448,112.046,62.062,48.453,72.314,20.428,33.304,53.818,71.831,10.387,196.724,59.089,36.829,79.076,299.969,34.155,4096.0,0.0,0.0,0,1688564520.0565,2023-07-05 15:42:00,Rest
115,0,40.11,63.996,27.401,17.333,71.419,52.962,53.006,169.131,114.75,128.955,79.53,23.268,46.447,66.604,172.491,311.549,-248.891,113.983,69.684,57.626,74.291,29.629,45.566,59.912,80.468,21.135,206.261,65.69,45.501,93.854,315.55,50.514,4224.0,0.0,0.0,0,1688564520.0645,2023-07-05 15:42:00,Rest
116,0,50.828,81.863,44.279,35.247,87.742,64.18,64.736,180.745,125.906,139.072,89.697,37.077,52.548,76.783,180.003,309.188,-229.174,120.529,80.885,56.031,74.217,35.235,53.717,70.098,89.609,30.848,221.936,80.481,59.8,109.642,329.579,66.345,4096.0,0.0,0.0,0,1688564520.0723,2023-07-05 15:42:00,Rest
117,0,50.265,77.17,38.6,25.99,84.068,61.555,62.622,175.954,121.682,133.298,84.996,37.04,54.545,79.78,180.335,306.317,-224.334,118.359,75.681,52.389,69.02,33.15,48.54,67.979,89.519,26.719,225.813,83.474,57.691,106.971,327.201,66.279,4096.0,0.0,0.0,0,1688564520.0802,2023-07-05 15:42:00,Rest
118,0,45.092,70.945,31.901,20.329,78.861,55.345,56.412,168.093,117.974,130.603,79.276,30.343,47.83,74.065,176.569,304.474,-221.548,117.217,71.507,60.534,71.512,34.654,47.467,63.813,86.868,22.081,218.415,76.219,53.023,101.741,323.8,58.528,4352.0,0.0,0.0,0,1688564520.0881,2023-07-05 15:42:00,Rest
119,0,47.608,78.559,39.554,33.116,87.491,59.901,63.015,178.171,117.344,142.255,85.344,33.387,52.905,78.602,182.54,304.17,-210.568,119.661,78.608,65.596,78.613,42.816,53.568,65.286,87.294,25.133,218.709,77.167,58.605,105.738,329.111,60.519,4096.0,0.0,0.0,0,1688564520.0959,2023-07-05 15:42:00,Rest
120,0,47.561,75.919,40.539,33.595,88.94,60.865,65.514,176.969,111.591,140.576,86.283,35.403,59.0,84.159,186.456,308.476,-217.53,113.906,71.357,53.748,75.46,45.847,53.514,59.073,83.108,20.497,215.416,76.578,56.497,103.583,324.684,64.557,4096.0,0.0,0.0,0,1688564520.1038,2023-07-05 15:42:00,Rest
121,0,40.341,63.035,30.764,26.902,80.654,53.632,58.276,161.935,109.43,128.652,82.611,31.781,57.404,85.611,183.195,313.803,-229.608,110.206,58.99,47.546,69.75,44.777,46.8,52.866,76.365,11.767,204.955,70.353,49.781,96.307,312.576,55.783,4096.0,0.0,0.0,0,1688564520.1116,2023-07-05 15:42:00,Rest
122,0,42.862,63.997,28.684,26.875,82.623,57.165,60.267,163.31,107.784,132.11,88.164,33.799,65.031,88.087,183.012,309.391,-209.398,118.805,66.616,57.745,74.803,49.343,47.778,63.572,77.313,14.829,208.848,76.943,52.805,99.796,311.239,50.092,4096.0,0.0,0.0,0,1688564520.1195,2023-07-05 15:42:00,Rest
123,0,49.991,71.617,35.316,24.799,87.151,62.231,67.891,167.245,106.139,138.126,92.174,36.326,70.602,87.487,182.829,301.909,-193.308,123.809,76.283,60.761,77.802,53.904,54.903,71.705,83.384,18.913,218.885,86.088,57.363,108.406,314.514,57.726,4096.0,0.0,0.0,0,1688564520.1274,2023-07-05 15:42:00,Rest
124,0,47.892,72.57,38.867,28.36,87.064,59.095,65.774,161.955,107.57,136.451,89.008,33.728,61.31,84.326,179.06,306.73,-213.607,119.074,69.547,53.015,69.015,49.239,54.336,64.973,83.3,16.333,213.543,81.391,58.33,108.81,313.687,64.841,4096.0,0.0,0.0,0,1688564520.1353,2023-07-05 15:42:00,Rest
125,0,44.77,71.985,38.315,36.016,91.588,61.085,61.098,167.428,103.364,139.388,86.87,31.645,55.613,82.192,178.369,312.571,-230.299,113.32,64.354,48.864,57.163,40.481,49.67,55.687,75.532,18.366,207.695,77.211,58.272,105.627,312.861,65.288,4096.0,0.0,0.0,0,1688564520.1431,2023-07-05 15:42:00,Rest
126,0,41.139,71.913,37.253,32.394,93.033,59.487,56.938,169.31,97.625,137.199,82.172,25.466,49.922,73.913,176.141,305.086,-229.556,105.01,64.29,43.692,51.47,32.756,47.059,48.971,71.358,21.421,206.975,76.621,52.066,105.009,311.011,63.174,4096.0,0.0,0.0,0,1688564520.151,2023-07-05 15:42:00,Rest
127,0,35.463,66.206,33.117,27.751,84.743,49.693,50.733,153.771,95.991,126.816,71.844,17.756,38.089,67.691,171.867,297.097,-230.864,97.732,58.59,42.624,51.419,26.575,40.864,45.848,71.799,15.764,199.083,68.86,46.891,102.343,306.089,59.012,4096.0,0.0,0.0,0,1688564520.1588,2023-07-05 15:42:00,Rest
0,0,35.94,60.504,31.034,28.748,80.56,50.156,48.633,147.47,91.796,125.152,68.186,18.251,35.489,71.21,171.695,298.337,-226.022,98.659,56.995,50.266,51.88,23.475,37.75,46.827,70.703,10.625,194.785,65.717,48.381,99.167,303.222,57.416,0.0,0.0,222.0,0,1688564520.1667,2023-07-05 15:42:00,Rest
1,0,34.879,58.907,28.442,21.547,80.992,53.692,47.56,150.908,87.606,124.002,71.704,19.257,37.503,70.114,171.523,299.575,-225.284,99.073,60.012,50.728,53.877,21.915,40.274,43.194,67.558,8.566,194.591,67.701,45.258,96.506,298.82,55.822,0.0,0.0,227.0,0,1688564520.1745,2023-07-05 15:42:00,Rest
2,0,28.184,58.336,23.29,14.865,77.837,48.515,44.439,147.171,86.494,116.706,73.169,15.139,37.978,69.532,173.913,303.374,-239.916,96.412,56.878,49.652,61.508,20.868,38.184,40.589,66.466,3.946,188.248,64.047,42.139,92.311,293.91,52.18,0.0,0.0,212.0,0,1688564520.1824,2023-07-05 15:42:00,Rest
3,0,33.279,59.814,24.804,20.998,80.321,49.491,49.005,145.487,84.87,118.126,74.633,19.735,48.698,79.708,182.961,309.218,-239.163,100.414,56.309,57.8,68.106,24.946,38.146,48.746,66.4,5.991,190.109,66.545,47.22,93.243,297.203,53.152,0.0,0.0,223.0,0,1688564520.1903,2023-07-05 15:42:00,Rest
4,0,40.418,62.316,29.39,23.026,84.339,57.126,54.079,149.953,83.761,122.107,79.681,27.912,56.847,82.19,182.265,305.323,-225.604,104.925,61.375,55.18,71.112,31.581,45.28,53.82,69.407,13.158,198.628,76.212,49.735,95.199,299.467,54.636,0.0,0.0,121.0,0,1688564520.1982,2023-07-05 15:42:00,Rest
5,0,33.718,59.18,24.75,19.417,79.131,53.483,47.877,146.216,82.652,119.935,80.626,25.323,50.642,74.423,171.837,299.895,-231.014,101.234,59.265,42.318,69.504,30.012,43.186,50.692,72.924,10.583,192.794,73.574,45.074,88.956,293.532,51.508,0.0,0.0,225.0,0,1688564520.206,2023-07-05 15:42:00,Rest
6,0,33.684,58.608,24.725,25.033,79.052,51.38,45.268,145.558,77.447,123.914,79.009,21.199,50.591,74.861,175.251,304.718,-240.004,98.571,54.595,41.251,55.602,21.785,40.069,47.055,67.728,3.913,185.942,66.841,46.054,86.818,292.726,52.481,0.0,0.0,223.0,0,1688564520.2139,2023-07-05 15:42:00,Rest
7,0,43.384,66.234,32.897,31.668,90.244,56.452,53.42,153.097,75.32,128.401,79.954,22.202,52.59,73.249,181.736,307.487,-241.814,97.448,53.516,38.648,36.591,16.64,46.176,39.324,61.0,6.47,191.391,70.36,51.643,93.391,296.02,57.551,0.0,0.0,223.0,0,1688564520.2217,2023-07-05 15:42:00,Rest
8,0,40.779,69.754,31.327,28.562,93.74,54.859,52.854,153.456,76.269,121.1,77.313,20.643,41.779,63.442,173.357,301.544,-246.695,91.203,49.364,23.752,24.259,12.013,43.056,31.6,59.402,6.976,190.687,70.289,50.567,92.273,294.187,56.981,0.0,0.0,211.0,0,1688564520.2296,2023-07-05 15:42:00,Rest
9,0,36.128,65.074,25.661,26.485,89.035,50.705,47.678,148.18,74.144,114.831,69.039,17.036,36.102,62.866,168.573,296.632,-244.399,88.55,46.24,20.142,19.624,3.292,36.353,34.642,57.294,0.821,186.398,65.608,45.905,87.058,291.843,55.388,0.0,0.0,197.0,0,1688564520.2374,2023-07-05 15:42:00,Rest
10,0,39.166,63.472,27.684,26.97,88.434,52.192,50.704,147.519,69.971,114.204,67.945,15.482,37.09,65.877,171.479,294.798,-237.495,92.047,49.268,28.831,27.289,-1.835,41.44,37.169,56.724,-1.229,190.31,69.641,44.835,88.508,293.088,56.869,0.0,0.0,206.0,0,1688564520.2453,2023-07-05 15:42:00,Rest
11,0,37.077,63.408,27.144,24.894,87.321,51.627,51.166,141.736,67.34,110.504,72.488,14.442,35.004,62.225,167.721,293.991,-236.232,92.98,53.829,34.95,45.705,-0.808,41.911,37.644,59.741,0.822,191.145,71.109,46.327,88.932,292.795,56.3,0.0,0.0,214.0,0,1688564520.2532,2023-07-05 15:42:00,Rest
12,0,31.917,58.734,21.994,22.82,82.623,47.989,45.479,133.398,64.199,110.906,69.854,15.452,37.018,62.676,164.479,291.135,-228.312,96.473,58.899,44.137,61.028,1.242,35.209,44.779,60.706,2.358,188.904,65.402,44.744,85.256,291.99,53.17,0.0,0.0,217.0,0,1688564520.261,2023-07-05 15:42:00,Rest
13,0,29.324,56.114,21.46,23.822,80.491,48.454,42.872,131.727,59.524,114.381,68.247,15.949,40.055,68.248,166.876,285.209,-217.325,102.012,61.401,54.339,70.189,3.802,37.223,47.296,61.67,0.819,188.715,65.849,42.137,81.585,289.649,49.53,0.0,0.0,220.0,0,1688564520.2688,2023-07-05 15:42:00,Rest
14,0,27.245,56.058,20.926,23.286,80.923,48.405,43.342,132.108,54.853,111.193,71.765,12.859,37.453,68.18,165.173,281.85,-222.231,96.787,54.168,47.112,70.631,4.311,37.186,40.588,60.071,-5.33,183.404,67.832,41.071,77.405,282.187,46.407,0.0,0.0,211.0,0,1688564520.2766,2023-07-05 15:42:00,Rest
15,0,30.804,55.489,18.856,23.262,84.428,46.82,43.811,131.463,54.286,109.032,72.205,13.871,40.49,66.063,165.007,286.691,-234.304,87.469,45.404,33.233,56.728,0.72,33.562,39.523,53.864,-9.423,179.634,65.715,41.029,75.278,277.806,47.898,0.0,0.0,217.0,0,1688564520.2844,2023-07-05 15:42:00,Rest
16,0,38.458,58.508,26.009,29.899,93.053,51.384,47.353,136.967,55.256,114.046,72.645,19.493,46.085,66.509,172.527,299.212,-245.853,88.918,48.433,37.298,48.474,3.793,39.164,42.557,55.859,-2.241,185.09,70.773,45.087,79.302,283.676,55.022,0.0,0.0,211.0,0,1688564520.2922,2023-07-05 15:42:00,Rest
17,0,36.37,62.035,32.643,37.554,96.034,55.431,47.818,138.367,54.689,113.42,73.085,19.473,38.354,61.832,174.916,301.987,-257.39,89.342,50.433,42.384,49.451,6.351,41.174,38.929,59.901,5.445,187.466,74.288,48.628,82.808,289.028,60.09,0.0,0.0,216.0,0,1688564520.3001,2023-07-05 15:42:00,Rest
18,0,29.674,57.363,25.438,30.856,89.278,47.179,38.549,127.983,53.61,103.06,61.741,9.208,24.996,51.011,164.495,285.291,-260.206,74.908,38.6,24.923,31.983,-6.975,31.911,26.594,49.083,1.854,180.619,64.48,42.432,78.115,282.591,56.956,0.0,0.0,199.0,0,1688564520.308,2023-07-05 15:42:00,Rest
19,0,30.156,56.281,19.778,20.067,86.627,43.033,34.924,124.269,52.019,97.834,55.532,3.051,20.36,46.349,157.67,275.272,-259.434,63.05,28.315,11.578,10.946,-17.214,28.293,16.322,39.813,-4.296,178.389,60.829,37.266,73.938,277.185,55.874,0.0,0.0,215.0,0,1688564520.3159,2023-07-05 15:42:00,Rest
20,0,34.737,64.934,28.467,28.244,94.737,53.748,44.623,131.829,51.967,104.396,66.747,8.683,27.0,53.988,167.247,289.853,-264.297,73.233,37.508,23.862,20.669,-5.926,34.413,22.965,48.482,2.369,184.358,69.478,45.938,80.524,283.056,65.552,0.0,0.0,214.0,0,1688564520.3237,2023-07-05 15:42:00,Rest
21,0,33.678,63.844,29.463,37.437,97.204,55.744,49.189,129.648,50.89,110.952,69.242,14.822,33.12,61.618,178.35,299.81,-261.984,90.066,49.254,37.67,39.604,2.276,36.94,32.676,52.02,7.489,183.662,67.871,47.941,81.468,285.847,65.999,0.0,0.0,211.0,0,1688564520.3316,2023-07-05 15:42:00,Rest
22,0,28.521,50.46,15.089,25.104,84.299,45.954,40.943,118.248,45.204,107.255,60.976,11.221,31.038,60.02,174.586,286.702,-250.451,91.0,47.156,36.608,43.15,-0.8,32.804,29.57,43.771,-2.764,176.306,59.606,37.647,68.067,275.315,48.515,0.0,0.0,210.0,0,1688564520.3394,2023-07-05 15:42:00,Rest
23,0,26.955,45.799,11.488,16.37,77.042,45.396,39.877,116.08,40.036,99.975,63.989,5.575,32.031,60.984,167.239,276.682,-241.491,85.786,43.522,35.034,47.718,3.812,28.673,31.077,45.776,-8.909,175.617,61.084,37.097,60.314,267.867,43.855,0.0,0.0,216.0,0,1688564520.3473,2023-07-05 15:42:00,Rest
24,0,27.953,48.827,18.136,25.575,82.601,48.424,44.448,118.526,40.508,100.388,65.974,5.569,36.098,63.997,167.072,277.43,-236.127,87.237,46.04,37.561,56.379,7.394,28.644,38.731,53.927,-3.265,176.978,63.072,39.11,62.815,269.136,53.545,0.0,0.0,209.0,0,1688564520.3551,2023-07-05 15:42:00,Rest
25,0,23.827,44.167,14.532,25.55,82.518,41.716,38.768,113.796,37.906,103.361,57.711,5.051,29.914,57.273,164.343,272.029,-235.891,81.002,39.334,35.474,50.688,2.264,28.616,30.495,47.213,-7.36,168.604,57.886,33.435,58.654,264.769,47.344,0.0,0.0,212.0,0,1688564520.363,2023-07-05 15:42:00,Rest
26,0,23.29,43.099,11.444,17.839,79.362,39.625,32.582,109.072,32.745,100.184,56.116,3.509,21.687,47.994,159.056,264.072,-247.438,63.503,28.536,28.266,37.829,2.774,25.001,18.681,36.408,-17.087,162.8,53.729,33.402,56.034,256.307,40.125,0.0,0.0,195.0,0,1688564520.3708,2023-07-05 15:42:00,Rest
27,0,29.927,54.839,19.629,23.457,87.992,44.709,36.648,115.623,30.151,97.01,57.597,4.018,21.666,44.36,159.409,264.321,-254.363,59.341,29.02,23.115,33.181,8.406,25.488,20.712,38.42,-11.946,170.834,57.774,37.979,65.712,260.149,53.404,0.0,0.0,210.0,0,1688564520.3788,2023-07-05 15:42:00,Rest
28,0,31.434,59.907,23.708,33.167,96.1,46.201,40.197,124.728,27.559,99.987,58.052,5.551,21.644,46.365,164.372,266.618,-246.936,69.528,35.139,25.141,31.098,10.447,29.561,23.765,42.993,-3.225,177.324,61.815,36.916,71.794,268.086,60.523,0.0,0.0,210.0,0,1688564520.3866,2023-07-05 15:42:00,Rest
29,0,26.792,47.039,17.024,32.622,90.369,43.593,37.595,120.505,24.97,100.911,57.481,2.471,20.598,50.93,165.745,264.814,-244.128,70.483,35.104,27.678,24.919,8.388,26.97,17.594,37.314,-8.345,169.462,59.192,33.806,63.525,262.182,48.167,0.0,0.0,214.0,0,1688564520.3945,2023-07-05 15:42:00,Rest
30,0,24.204,35.721,10.347,24.392,82.082,38.939,34.484,108.602,23.408,96.712,53.326,-1.117,22.626,52.416,161.481,259.939,-244.396,66.826,30.97,26.113,18.747,0.695,21.82,10.404,31.129,-14.997,158.534,50.423,28.649,52.191,252.699,41.459,0.0,0.0,200.0,0,1688564520.4023,2023-07-05 15:42:00,Rest
31,0,23.155,36.198,10.849,18.733,79.438,36.851,35.474,108.493,20.823,95.591,54.809,1.445,28.239,55.949,160.807,256.605,-233.393,78.542,36.062,28.136,21.802,-1.355,22.311,9.881,31.611,-12.933,158.375,46.787,27.595,51.114,252.446,44.492,0.0,0.0,222.0,0,1688564520.4102,2023-07-05 15:42:00,Rest
32,0,27.742,42.822,16.986,25.886,83.969,42.961,42.611,117.606,20.802,100.618,64.488,7.592,37.432,67.676,170.892,263.008,-224.963,94.345,49.859,34.768,31.514,10.429,29.461,20.63,37.214,-7.797,164.877,56.986,34.228,59.772,255.267,48.033,4096.0,0.0,0.0,0,1688564520.418,2023-07-05 15:42:00,Rest
33,0,35.912,48.414,20.555,34.057,91.058,48.554,47.179,118.513,18.732,104.104,66.985,11.17,44.567,74.269,177.894,273.504,-232.935,95.788,52.882,38.832,41.216,17.591,34.042,31.88,44.862,-3.178,169.323,68.2,38.292,64.323,257.574,52.084,4096.0,0.0,0.0,0,1688564520.4259,2023-07-05 15:42:00,Rest
34,0,35.363,47.341,15.924,30.437,89.942,47.481,44.058,112.759,7.955,102.463,63.332,11.159,39.912,66.51,174.13,272.718,-238.849,89.032,45.145,41.354,47.835,13.987,30.934,31.848,49.428,-3.175,170.178,66.082,34.668,60.16,258.341,48.446,4096.0,0.0,0.0,0,1688564520.4337,2023-07-05 15:42:00,Rest
35,0,31.23,43.196,12.834,25.284,85.754,47.433,40.428,111.622,-1.787,96.725,60.195,6.537,31.163,59.271,170.369,264.248,-238.098,84.332,42.538,41.313,46.763,8.338,26.805,27.205,43.231,-9.832,166.934,58.844,32.584,56.514,253.984,43.274,4096.0,0.0,0.0,0,1688564520.4417,2023-07-05 15:42:00,Rest
36,0,31.711,47.251,17.432,28.332,89.766,44.824,41.412,114.072,-3.834,90.993,56.036,2.944,29.082,57.163,167.638,263.472,-252.717,75.026,41.983,33.075,40.056,3.206,27.29,25.641,35.503,-14.945,161.132,59.81,34.088,57.994,251.168,47.841,4224.0,0.0,0.0,0,1688564520.4495,2023-07-05 15:42:00,Rest
37,0,34.24,55.913,21.513,32.402,97.874,42.73,44.957,116.519,-1.269,92.951,59.054,7.04,29.053,51.982,162.859,270.381,-273.981,65.218,38.868,28.431,40.016,5.252,28.288,28.177,37.004,-10.319,166.094,65.898,39.177,62.547,254.503,52.404,4096.0,0.0,0.0,0,1688564520.4574,2023-07-05 15:42:00,Rest
38,0,37.792,58.418,22.004,33.907,99.313,51.397,47.986,119.477,0.782,98.493,64.118,10.107,29.024,50.906,165.258,269.598,-266.023,68.226,39.853,34.038,45.099,12.932,28.772,32.247,41.066,-5.698,175.149,69.418,43.236,64.534,253.737,51.327,4096.0,0.0,0.0,0,1688564520.4653,2023-07-05 15:42:00,Rest
39,0,39.291,54.262,20.957,30.287,93.578,55.444,49.987,117.82,-2.293,95.321,60.98,8.56,32.581,54.953,169.191,261.131,-243.215,72.769,39.301,34.004,38.906,7.796,29.255,30.166,40.0,-7.742,171.388,70.373,40.632,60.883,251.434,52.813,4096.0,0.0,0.0,0,1688564520.4731,2023-07-05 15:42:00,Rest
40,0,36.178,52.158,20.936,28.719,90.41,47.704,49.937,113.092,-8.438,93.689,60.407,9.063,33.061,55.923,164.923,257.797,-242.972,66.548,33.627,25.773,26.572,-1.946,27.689,25.525,40.985,-5.172,168.143,69.79,38.542,60.31,253.231,54.809,3840.0,0.0,0.0,0,1688564520.481,2023-07-05 15:42:00,Rest
41,0,35.118,52.618,22.452,37.912,95.955,47.656,47.325,113.491,-9.454,100.767,62.396,8.542,27.905,54.33,161.685,257.026,-250.926,59.309,29.494,23.698,22.447,0.105,28.174,28.061,45.554,-0.044,172.073,71.77,40.552,65.373,253.49,53.218,4096.0,0.0,0.0,0,1688564520.4888,2023-07-05 15:42:00,Rest
42,0,33.546,48.979,18.844,38.387,96.372,49.657,42.667,110.816,-9.957,98.617,56.186,1.874,23.266,50.69,160.498,249.085,-247.089,60.275,27.416,21.113,15.764,-5.53,28.145,22.397,40.386,-7.216,165.753,67.087,37.95,60.697,246.577,50.091,4224.0,0.0,0.0,0,1688564520.4967,2023-07-05 15:42:00,Rest
43,0,24.803,39.197,8.579,22.979,83.98,39.874,37.502,100.459,-17.632,82.637,48.957,-4.276,20.681,47.053,155.727,245.762,-256.063,60.727,24.827,10.845,4.478,-19.869,19.408,9.567,27.538,-19.505,150.73,52.675,29.715,46.804,236.084,40.307,4224.0,0.0,0.0,0,1688564520.5046,2023-07-05 15:42:00,Rest
44,0,18.63,31.473,1.91,16.808,74.675,31.637,33.878,94.723,-20.688,74.358,44.81,-8.37,16.562,47.518,153.522,252.176,-274.25,57.592,22.753,9.81,11.133,-23.436,11.192,8.021,22.899,-25.12,145.969,45.963,22.513,39.584,225.602,28.996,4096.0,0.0,0.0,0,1688564520.5125,2023-07-05 15:42:00,Rest
45,0,17.075,24.269,-3.727,16.279,70.501,27.507,29.746,88.993,-18.106,73.259,39.642,-14.51,11.935,46.446,154.905,249.362,-274.488,52.412,17.095,13.386,19.831,-29.56,9.131,6.988,20.827,-32.268,140.7,45.917,16.343,32.373,216.667,20.77,4096.0,0.0,0.0,0,1688564520.5203,2023-07-05 15:42:00,Rest
46,0,6.811,11.949,-18.58,1.918,56.086,18.258,17.933,75.072,-26.285,66.013,32.43,-23.717,5.263,39.739,156.8,237.842,-272.677,45.699,11.954,3.127,4.955,-45.412,0.925,-7.876,3.9,-52.215,124.165,33.576,7.618,16.971,202.618,5.892,3968.0,0.0,0.0,0,1688564520.5282,2023-07-05 15:42:00,Rest
47,0,-0.88,3.228,-32.394,-10.891,46.296,11.58,11.255,67.312,-38.042,59.287,28.299,-29.328,3.209,38.163,162.791,239.654,-279.064,48.215,15.529,2.611,-1.198,-46.903,-6.248,-14.016,-12.498,-71.118,112.77,23.808,1.462,9.782,187.046,-8.971,4096.0,0.0,0.0,0,1688564520.536,2023-07-05 15:42:00,Rest
48,0,11.416,15.008,-22.116,-0.634,59.57,20.277,24.564,78.003,-33.905,66.4,39.541,-16.491,16.525,49.395,170.825,253.759,-269.564,64.561,28.833,27.199,24.419,-28.413,4.517,4.954,3.397,-59.777,122.904,38.129,10.682,22.067,196.081,-0.253,4096.0,0.0,0.0,0,1688564520.5439,2023-07-05 15:42:00,Rest
49,0,29.336,35.485,5.059,23.957,82.564,40.237,45.031,96.368,-24.65,81.703,58.457,5.555,33.415,63.691,173.216,259.653,-250.851,78.328,41.612,46.128,48.473,-10.966,23.468,28.515,36.181,-26.929,147.884,61.145,31.164,44.074,226.623,28.949,4096.0,50331648.0,0.0,0,1688564520.5517,2023-07-05 15:42:00,Rest
50,0,34.429,42.11,16.837,36.229,91.191,49.418,49.085,104.469,-25.65,89.306,59.423,9.135,31.845,60.553,167.919,249.659,-245.477,73.639,43.107,40.958,48.424,-8.394,28.055,31.56,45.366,-7.947,162.081,68.768,38.817,52.227,236.643,42.24,4096.0,0.0,0.0,0,1688564520.5596,2023-07-05 15:42:00,Rest
51,0,26.71,35.408,5.549,27.995,84.952,39.123,41.351,97.704,-33.308,86.655,46.044,-3.169,18.493,44.611,155.968,234.04,-243.695,61.783,35.38,29.134,39.154,-17.095,19.83,19.746,34.05,-22.796,151.672,59.99,29.557,40.904,222.574,30.927,4224.0,0.0,0.0,0,1688564520.5675,2023-07-05 15:42:00,Rest
52,0,21.561,33.835,0.933,23.357,81.793,32.424,38.236,90.434,-33.787,82.47,45.486,-5.728,13.864,43.029,150.689,229.195,-243.451,61.208,32.783,26.544,33.48,-21.688,15.712,18.701,30.942,-27.896,144.861,53.27,26.966,35.74,220.302,28.847,3968.0,0.0,0.0,0,1688564520.5754,2023-07-05 15:42:00,Rest
53,0,28.199,42.511,12.715,32.043,91.445,41.613,42.808,97.004,-27.606,82.9,52.1,-0.087,19.485,53.233,157.198,236.138,-252.941,65.758,36.336,30.616,34.983,-15.007,21.331,25.855,38.596,-11.474,154.45,61.414,32.574,48.0,232.377,43.163,4096.0,0.0,0.0,0,1688564520.5832,2023-07-05 15:42:00,Rest
54,0,31.757,47.079,15.264,34.06,94.94,45.157,44.303,101.518,-29.115,83.329,50.511,-0.087,22.027,52.667,160.627,243.075,-263.447,63.643,36.812,27.511,37.51,-12.943,24.384,21.218,41.631,-9.926,155.32,68.012,32.03,53.075,231.12,44.144,4224.0,0.0,0.0,0,1688564520.5911,2023-07-05 15:42:00,Rest
55,0,23.528,39.347,6.027,27.366,86.136,38.965,40.16,94.244,-35.746,80.172,49.436,-2.136,18.931,49.541,161.491,245.393,-267.794,64.092,34.726,22.361,34.911,-14.979,17.699,18.123,36.979,-23.236,147.992,62.309,27.899,44.313,220.643,32.317,4096.0,0.0,0.0,0,1688564520.5989,2023-07-05 15:42:00,Rest
56,0,24.529,33.16,4.996,27.851,83.488,38.926,42.681,91.076,-35.71,78.042,53.485,-1.621,25.06,58.2,165.941,246.685,-264.965,70.688,36.228,31.047,39.999,-6.255,15.12,26.814,34.38,-26.799,150.406,62.247,28.383,41.707,219.398,29.723,4096.0,0.0,0.0,0,1688564520.6068,2023-07-05 15:42:00,Rest
57,0,31.677,35.689,7.041,28.847,84.942,40.936,47.762,91.497,-35.162,78.477,54.456,-0.083,38.355,64.29,165.262,245.926,-254.966,74.715,38.241,39.213,50.205,1.436,21.253,29.349,36.395,-24.211,149.743,68.332,29.38,42.178,221.227,30.718,4096.0,0.0,0.0,0,1688564520.6146,2023-07-05 15:42:00,Rest
58,0,26.522,33.092,0.374,23.696,76.66,37.309,43.103,85.77,-41.275,73.787,52.352,-0.083,36.267,61.152,158.95,240.044,-247.539,74.128,37.691,32.514,47.593,-1.127,21.744,25.734,33.797,-26.748,142.421,64.678,27.301,37.012,213.834,24.54,4096.0,0.0,0.0,0,1688564520.6225,2023-07-05 15:42:00,Rest
59,0,21.885,27.423,-3.725,21.623,72.997,34.71,37.425,83.635,-45.332,70.128,51.788,-0.595,27.522,58.529,156.229,234.169,-244.217,72.005,37.141,30.945,43.959,0.924,14.55,28.269,30.689,-31.332,142.791,62.051,25.225,34.414,209.009,23.491,4096.0,0.0,0.0,0,1688564520.6304,2023-07-05 15:42:00,Rest
60,0,26.986,29.445,1.402,24.675,80.096,37.237,39.436,87.65,-45.287,73.644,49.687,-1.107,30.056,57.446,157.61,231.885,-239.362,69.884,39.665,37.574,50.063,9.12,16.072,28.753,34.757,-34.374,143.16,67.112,25.199,38.478,210.337,27.565,3968.0,0.0,0.0,0,1688564520.6383,2023-07-05 15:42:00,Rest
61,0,24.398,33.002,5.499,27.212,83.602,38.224,40.934,88.074,-45.242,76.644,44.514,-4.692,24.39,48.679,151.817,227.555,-246.808,61.105,35.527,31.389,45.915,8.598,19.13,25.651,35.747,-32.291,139.943,64.996,26.199,41.001,211.151,30.099,4096.0,0.0,0.0,0,1688564520.6461,2023-07-05 15:42:00,Rest
62,0,20.275,33.993,8.567,30.771,85.056,34.6,40.893,89.011,-42.122,73.493,39.859,-10.322,4.898,34.798,140.394,219.643,-264.492,42.088,23.708,19.574,33.061,0.905,13.988,23.064,32.637,-24.574,141.34,58.271,24.636,41.984,212.989,34.68,3968.0,0.0,0.0,0,1688564520.654,2023-07-05 15:42:00,Rest
63,0,27.427,40.107,14.706,37.912,92.143,37.639,42.901,95.582,-39.519,74.444,39.819,-7.75,2.332,32.202,140.766,218.911,-268.326,37.435,24.709,22.116,32.516,-0.633,13.461,20.479,38.24,-17.889,143.761,61.287,27.173,44.504,217.9,42.33,4096.0,0.0,0.0,0,1688564520.6619,2023-07-05 15:42:00,Rest
64,0,33.547,49.288,22.376,44.534,99.223,47.848,46.445,98.56,-42.553,80.005,43.877,-0.058,13.088,41.391,154.458,229.963,-264.983,51.23,37.492,33.877,37.094,3.979,21.132,21.483,44.862,-12.236,146.178,69.935,33.805,50.607,219.219,47.923,0.0,0.0,220.0,0,1688564520.6697,2023-07-05 15:42:00,Rest
65,0,34.026,49.239,23.891,42.953,98.612,49.849,52.033,98.462,-44.56,81.462,48.444,3.016,17.173,51.084,164.037,240.491,-268.305,60.913,41.041,39.478,37.569,8.585,24.185,27.097,43.792,-10.175,150.643,72.939,34.284,52.606,216.95,48.388,0.0,0.0,226.0,0,1688564520.6776,2023-07-05 15:42:00,Rest
66,0,35.017,40.481,17.207,36.762,91.341,46.725,56.592,96.314,-42.978,81.381,56.081,5.574,29.964,64.352,172.582,248.448,-267.012,68.536,43.049,42.513,41.63,12.675,25.698,32.193,42.212,-15.288,149.468,72.353,32.713,47.43,212.635,41.167,0.0,0.0,211.0,0,1688564520.6854,2023-07-05 15:42:00,Rest
67,0,34.982,37.366,14.116,36.725,87.151,49.752,59.097,93.656,-42.935,88.472,64.734,13.253,51.451,80.682,185.73,262.032,-268.281,84.862,51.203,50.155,44.662,18.81,30.795,35.747,40.633,-17.321,145.732,73.306,38.315,45.333,207.811,36.003,0.0,0.0,223.0,0,1688564520.6934,2023-07-05 15:42:00,Rest
68,0,38.533,47.063,20.762,43.861,90.65,54.826,63.137,99.71,-43.405,95.556,67.743,16.826,53.961,81.114,190.155,272.528,-278.772,89.9,51.152,48.568,44.105,24.427,32.814,36.736,41.104,-13.206,149.173,79.38,42.375,51.948,209.653,42.114,0.0,0.0,121.0,0,1688564520.7012,2023-07-05 15:42:00,Rest
69,0,43.105,52.139,22.278,46.379,93.633,54.771,63.073,106.27,-40.287,93.411,64.089,15.273,45.71,71.299,184.329,267.132,-283.104,81.613,47.514,37.761,45.086,25.427,31.756,38.748,44.137,-13.192,151.585,83.399,41.821,51.384,210.98,48.22,0.0,0.0,224.0,0,1688564520.7091,2023-07-05 15:42:00,Rest
70,0,38.963,47.476,16.108,41.721,90.466,52.667,58.912,102.578,-39.223,86.145,61.463,9.622,40.541,67.641,179.534,253.545,-281.284,76.921,46.955,36.698,41.455,21.303,30.7,40.759,40.507,-14.716,146.823,81.266,39.73,44.672,204.109,42.536,0.0,0.0,223.0,0,1688564520.7169,2023-07-05 15:42:00,Rest
71,0,35.338,49.478,20.702,42.192,91.912,51.59,57.828,101.451,-41.745,84.522,57.816,5.001,31.792,60.914,175.768,244.583,-281.002,70.696,41.784,39.223,32.192,15.134,30.157,37.644,38.929,-10.603,147.7,78.624,37.641,48.726,203.905,43.006,0.0,0.0,222.0,0,1688564520.7248,2023-07-05 15:42:00,Rest
72,0,40.938,58.137,30.416,49.834,101.042,56.661,61.357,108.522,-40.679,90.073,55.709,9.607,25.612,54.705,176.617,242.289,-276.111,64.478,38.669,35.086,27.036,9.996,32.688,31.971,45.038,-5.469,155.75,80.594,42.214,56.874,211.898,56.795,0.0,0.0,211.0,0,1688564520.7326,2023-07-05 15:42:00,Rest
73,0,40.897,59.616,29.873,52.858,103.502,59.678,63.857,108.925,-42.175,93.569,60.264,13.184,29.173,61.31,185.15,249.219,-281.982,64.926,41.192,33.514,23.935,6.4,34.705,27.841,43.968,-6.488,154.057,79.489,46.27,54.768,208.1,60.325,0.0,0.0,197.0,0,1688564520.7405,2023-07-05 15:42:00,Rest
74,0,30.61,52.384,23.183,47.17,94.689,52.959,61.231,101.132,-50.33,90.402,62.253,5.486,29.143,66.884,189.575,258.191,-303.217,64.348,37.052,36.042,18.788,0.246,30.059,20.128,33.678,-11.605,142.12,72.237,37.002,46.004,198.158,49.506,0.0,0.0,205.0,0,1688564520.7483,2023-07-05 15:42:00,Rest
75,0,24.432,44.647,20.598,42.0,85.373,48.295,58.609,92.834,-51.816,88.774,58.604,3.944,29.627,68.354,190.41,261.519,-306.5,64.796,37.015,41.641,22.356,-3.341,26.443,17.034,33.132,-15.692,137.367,66.017,32.355,39.811,195.398,43.821,0.0,0.0,213.0,0,1688564520.7563,2023-07-05 15:42:00,Rest
76,0,25.944,42.553,20.065,42.47,85.8,53.37,64.185,91.204,-46.641,93.296,66.23,14.186,45.479,80.069,201.491,266.381,-288.263,77.539,51.835,57.481,39.752,7.421,31.54,28.288,41.296,-11.578,144.402,70.05,41.031,40.283,195.203,44.802,0.0,0.0,217.0,0,1688564520.7641,2023-07-05 15:42:00,Rest
77,0,26.943,44.56,18.508,41.916,87.764,55.878,69.244,95.211,-48.644,95.252,75.386,18.27,56.191,89.211,208.974,272.774,-280.802,89.757,59.468,70.231,57.131,20.221,35.607,40.555,45.353,-7.468,145.794,78.177,42.527,41.267,192.446,41.171,0.0,0.0,220.0,0,1688564520.772,2023-07-05 15:42:00,Rest
78,0,23.33,40.417,15.928,39.312,83.065,52.236,63.027,94.604,-55.255,92.595,67.626,12.104,49.988,81.437,201.593,267.378,-283.083,87.106,55.31,67.087,62.197,15.078,30.96,38.978,42.234,-13.608,137.964,77.074,36.337,35.079,185.594,32.42,0.0,0.0,210.0,0,1688564520.7798,2023-07-05 15:42:00,Rest
79,0,20.233,36.79,13.351,39.273,80.42,50.134,58.866,86.312,-58.786,90.454,57.824,9.53,44.815,74.183,193.706,255.328,-280.751,82.408,52.693,58.823,55.987,5.329,27.343,36.377,37.069,-19.742,133.728,70.337,35.276,31.457,178.748,28.802,0.0,0.0,217.0,0,1688564520.7877,2023-07-05 15:42:00,Rest
80,0,22.774,40.34,15.387,40.77,83.414,50.596,63.418,86.738,-59.752,86.777,57.254,10.033,43.233,71.547,190.951,249.437,-278.421,81.301,49.566,53.129,48.246,5.836,30.39,38.902,39.081,-14.087,135.131,71.803,34.216,36.037,179.594,34.921,0.0,0.0,211.0,0,1688564520.7955,2023-07-05 15:42:00,Rest
81,0,27.362,47.984,19.982,44.316,85.892,52.595,62.842,92.799,-57.643,86.69,56.684,10.023,34.993,62.766,181.539,242.015,-274.044,74.56,41.832,47.953,39.489,2.244,31.384,36.814,42.628,-6.901,137.557,78.904,37.256,41.636,183.001,42.57,0.0,0.0,216.0,0,1688564520.8034,2023-07-05 15:42:00,Rest
82,0,28.872,54.596,23.036,48.37,90.417,55.104,61.242,93.731,-55.536,89.165,55.091,10.013,29.322,54.507,171.111,227.429,-268.134,61.677,34.618,40.732,26.129,-6.467,29.816,31.142,37.975,-6.381,141.518,79.337,43.366,45.18,184.867,47.651,0.0,0.0,199.0,0,1688564520.8112,2023-07-05 15:42:00,Rest
83,0,30.892,58.128,24.038,46.785,93.4,54.537,66.816,95.174,-58.554,81.903,56.06,10.515,32.367,57.526,171.452,222.078,-268.379,55.468,32.534,32.495,14.832,-4.924,30.81,29.062,36.912,-7.4,142.913,76.184,41.274,46.672,187.243,50.677,0.0,0.0,216.0,0,1688564520.8192,2023-07-05 15:42:00,Rest
84,0,31.886,52.946,20.94,40.59,87.671,55.507,66.75,95.591,-59.52,76.699,57.029,12.042,36.433,63.616,179.478,232.102,-268.622,59.511,37.112,35.536,18.403,-0.308,31.292,26.983,41.486,-6.88,140.721,79.182,37.134,43.552,184.495,44.479,0.0,0.0,214.0,0,1688564520.827,2023-07-05 15:42:00,Rest
85,0,29.805,44.697,14.771,40.037,82.973,55.964,64.121,90.373,-57.412,86.356,60.558,14.079,41.52,67.651,185.958,238.53,-266.817,65.599,44.76,47.796,35.291,-0.308,30.748,27.981,40.42,-8.41,140.581,80.127,40.171,41.971,179.699,35.725,0.0,0.0,211.0,0,1688564520.8349,2023-07-05 15:42:00,Rest
86,0,26.189,45.164,13.219,42.046,83.402,50.784,64.57,87.721,-59.916,91.905,62.547,13.04,46.601,72.707,186.797,239.316,-273.722,70.144,48.814,51.847,49.088,0.717,31.23,36.15,41.404,-7.889,140.952,75.949,40.643,45.003,180.032,38.763,0.0,0.0,211.0,0,1688564520.8428,2023-07-05 15:42:00,Rest
87,0,21.552,49.217,16.792,40.98,81.782,49.709,62.968,90.195,-59.856,87.202,60.435,11.49,47.579,75.708,186.098,239.589,-270.887,73.148,52.351,54.869,53.65,5.839,32.736,41.749,46.998,-5.32,138.762,79.459,40.602,47.007,181.389,45.384,0.0,0.0,216.0,0,1688564520.8506,2023-07-05 15:42:00,Rest
88,0,24.092,51.73,20.362,42.988,85.286,57.344,66.491,91.129,-56.722,90.701,61.399,14.553,44.458,74.607,189.498,235.764,-252.685,72.563,54.348,66.597,56.158,11.981,36.801,41.707,50.537,-2.241,142.722,86.552,45.685,48.497,184.794,48.413,0.0,0.0,210.0,0,1688564520.8585,2023-07-05 15:42:00,Rest
89,0,30.728,56.289,28.026,51.142,96.472,60.873,73.085,95.649,-59.227,94.196,62.362,16.587,39.29,69.922,187.259,231.429,-252.945,66.342,49.683,62.944,52.003,11.969,39.326,39.617,54.585,3.397,147.19,85.44,47.176,51.523,190.757,55.024,0.0,0.0,212.0,0,1688564520.8663,2023-07-05 15:42:00,Rest
90,0,25.574,59.819,34.658,54.165,97.912,57.226,69.425,98.627,-60.192,86.418,57.689,13.497,32.079,59.606,174.264,226.587,-269.086,53.981,39.387,38.803,31.971,4.785,35.701,31.892,51.457,7.492,141.92,80.744,46.104,52.496,191.078,61.117,0.0,0.0,196.0,0,1688564520.8742,2023-07-05 15:42:00,Rest
91,0,22.474,58.222,32.062,51.549,93.204,57.169,65.77,92.893,-56.034,79.159,55.07,12.459,26.923,48.276,161.282,212.016,-265.231,43.168,30.638,24.419,14.521,1.706,32.591,26.225,41.671,5.435,137.679,79.639,46.058,49.882,188.838,61.056,0.0,0.0,211.0,0,1688564520.8821,2023-07-05 15:42:00,Rest
92,0,28.6,57.651,28.443,49.448,94.135,56.599,67.241,91.775,-58.027,78.567,53.99,11.934,21.261,41.567,154.973,197.972,-254.207,39.539,24.46,23.882,8.871,3.754,32.046,24.662,39.58,0.307,137.542,79.047,42.938,46.246,188.649,58.946,0.0,0.0,211.0,0,1688564520.89,2023-07-05 15:42:00,Rest
93,0,18.325,48.372,23.292,45.813,87.381,46.296,54.878,89.634,-64.629,72.853,45.739,1.164,14.58,36.915,152.257,198.286,-266.761,36.425,18.288,16.174,-1.384,-2.91,23.305,14.903,31.344,-7.378,125.109,71.283,35.723,41.076,179.239,49.665,0.0,0.0,214.0,0,1688564520.8978,2023-07-05 15:42:00,Rest
94,0,1.4,30.393,7.387,32.959,68.85,33.955,40.991,70.589,-68.15,63.047,33.911,-11.133,12.004,36.366,153.641,198.6,-282.375,33.827,15.196,11.035,-9.067,-9.567,12.523,4.642,14.919,-18.641,109.614,55.843,26.466,28.228,164.715,35.271,0.0,0.0,200.0,0,1688564520.9057,2023-07-05 15:42:00,Rest
95,0,3.961,26.264,0.207,24.729,62.634,31.871,46.073,61.81,-71.156,59.91,32.852,-10.097,16.602,44.526,156.562,193.278,-272.359,41.478,21.328,23.319,2.725,-2.385,11.998,7.711,17.465,-22.721,108.992,53.225,21.316,20.002,160.964,31.65,0.0,0.0,223.0,0,1688564520.9135,2023-07-05 15:42:00,Rest
96,0,10.617,33.923,10.966,33.926,71.281,37.475,54.224,75.58,-72.11,67.535,42.553,-0.865,25.295,54.216,158.454,190.524,-249.545,51.683,29.504,34.566,17.067,6.839,18.646,12.827,25.645,-16.039,112.982,63.418,27.955,27.155,164.902,35.716,4096.0,0.0,0.0,0,1688564520.9214,2023-07-05 15:42:00,Rest
97,0,9.069,30.815,12.492,40.04,73.258,41.024,54.17,77.554,-70.501,73.615,45.072,-0.865,27.319,54.161,161.37,189.821,-240.074,49.582,30.499,32.995,19.099,6.832,22.214,11.277,20.496,-12.436,111.844,61.818,32.538,33.275,167.81,36.705,4096.0,0.0,0.0,0,1688564520.9292,2023-07-05 15:42:00,Rest
98,0,11.622,28.222,5.819,31.803,70.624,39.958,55.14,69.792,-71.455,66.881,40.416,-5.474,21.656,48.472,162.745,188.606,-247.006,44.409,27.907,32.45,20.617,3.239,19.63,12.29,23.037,-13.961,112.245,57.145,25.333,31.193,169.18,37.693,4096.0,0.0,0.0,0,1688564520.9371,2023-07-05 15:42:00,Rest
99,0,17.245,40.49,14.01,33.308,76.701,42.48,59.696,79.968,-70.871,61.179,43.962,-0.858,22.147,47.399,158.484,189.442,-254.444,43.34,27.367,32.417,22.645,4.26,19.61,16.377,33.26,-9.848,116.231,69.384,29.406,37.822,172.597,43.291,4096.0,0.0,0.0,0,1688564520.945,2023-07-05 15:42:00,Rest
100,0,21.839,49.671,22.193,46.082,83.796,49.097,62.198,89.622,-67.214,68.29,50.066,6.827,25.199,47.351,153.715,188.228,-254.702,41.248,26.315,25.725,18.012,10.916,26.763,20.971,33.227,-6.252,122.262,76.486,41.672,49.054,177.547,48.371,4224.0,0.0,0.0,0,1688564520.9529,2023-07-05 15:42:00,Rest
101,0,24.379,47.059,19.097,47.061,84.225,50.073,60.599,89.02,-67.147,75.394,46.429,6.308,18.001,40.132,152.024,184.966,-259.058,38.133,24.239,24.162,16.457,15.004,28.273,24.024,31.144,-8.295,125.214,71.799,37.532,48.493,175.833,49.347,4096.0,0.0,0.0,0,1688564520.9607,2023-07-05 15:42:00,Rest
102,0,23.33,46.5,20.615,44.452,85.678,47.461,59.001,94.566,-69.641,73.269,44.846,4.765,13.885,33.432,150.847,183.244,-264.434,37.582,24.727,26.187,13.367,10.378,22.61,20.926,30.089,-9.824,120.478,73.264,33.908,44.858,170.021,47.761,4096.0,0.0,0.0,0,1688564520.9686,2023-07-05 15:42:00,Rest
103,0,24.843,52.089,24.693,51.068,90.203,50.487,62.528,98.57,-71.621,70.635,48.387,7.834,18.994,34.423,147.623,180.499,-257.51,37.032,24.702,21.55,2.082,5.244,24.124,16.294,25.96,-9.814,117.796,76.265,41.046,48.4,171.388,48.737,4096.0,0.0,0.0,0,1688564520.9764,2023-07-05 15:42:00,Rest
104,0,25.843,48.963,19.545,47.431,85.502,50.949,62.466,90.787,-78.209,67.49,44.24,5.265,18.463,34.901,143.377,174.171,-249.568,36.483,21.604,16.406,-5.604,3.702,26.661,14.229,22.86,-14.415,118.19,71.578,37.932,47.327,172.241,47.664,3840.0,0.0,0.0,0,1688564520.9843,2023-07-05 15:42:00,Rest
105,0,15.571,38.156,13.378,35.088,75.17,41.677,54.719,82.499,-81.205,60.25,39.585,-1.913,15.883,33.841,146.307,172.972,-253.929,37.983,19.021,10.754,-6.111,-0.912,19.975,7.042,18.739,-21.061,110.388,64.846,28.16,40.107,164.385,39.932,3968.0,0.0,0.0,0,1688564520.9921,2023-07-05 15:42:00,Rest
106,0,10.432,36.068,11.827,34.028,72.533,38.049,53.127,79.343,-77.537,59.678,40.058,-2.423,20.99,43.541,157.432,184.583,-266.483,44.605,22.588,10.231,-0.469,-6.034,18.93,2.937,15.134,-23.601,104.13,60.683,30.181,36.481,160.122,36.306,4224.0,0.0,0.0,0,1688564521.0,2023-07-05 15:42:01,Rest
107,0,12.983,37.057,8.742,32.969,68.875,39.035,55.123,75.165,-79.509,60.643,38.994,-2.933,23.018,50.158,163.934,196.181,-279.536,50.709,28.201,27.127,15.413,-7.053,21.473,7.545,21.267,-21.016,106.587,58.573,30.151,34.395,158.937,37.806,4224.0,0.0,0.0,0,1688564521.008,2023-07-05 15:42:01,Rest
108,0,2.212,22.163,-2.025,18.08,54.461,30.287,44.822,65.356,-87.626,48.799,31.27,-12.152,16.847,41.398,161.721,192.399,-289.503,49.633,29.197,37.858,26.156,-11.657,10.693,7.025,22.27,-24.069,98.796,51.342,19.874,24.627,150.581,26.498,4096.0,0.0,0.0,0,1688564521.0158,2023-07-05 15:42:01,Rest
109,0,-7.524,11.894,-10.733,9.352,46.21,22.06,37.093,54.02,-89.076,41.066,22.529,-19.312,8.634,33.672,158.998,182.985,-292.799,41.899,24.557,23.988,18.445,-15.744,-0.076,1.895,15.075,-32.754,86.402,43.094,14.731,16.918,143.771,15.201,4096.0,0.0,0.0,0,1688564521.0237,2023-07-05 15:42:01,Rest
110,0,3.242,24.69,-0.988,20.101,55.897,30.747,44.74,58.064,-85.4,53.832,24.044,-13.145,7.6,35.175,156.789,179.216,-289.945,36.734,20.946,17.304,11.254,-10.092,9.658,7.016,18.647,-28.111,94.512,51.248,20.864,26.122,150.799,29.018,3968.0,0.0,0.0,0,1688564521.0315,2023-07-05 15:42:01,Rest
111,0,14.509,36.961,14.894,33.401,67.112,40.963,51.868,68.252,-84.803,59.414,33.754,-1.861,14.253,31.554,149.46,172.889,-277.872,34.648,22.462,20.873,10.218,-3.422,19.894,15.718,27.849,-15.275,107.738,65.541,31.602,40.441,162.431,45.895,4096.0,0.0,0.0,0,1688564521.0394,2023-07-05 15:42:01,Rest
112,0,15.52,36.412,14.88,34.905,69.094,39.897,52.328,67.672,-86.767,51.67,36.794,0.702,14.751,25.887,142.139,163.494,-266.323,32.564,20.391,12.655,0.986,-4.956,16.288,15.702,28.334,-13.21,105.581,67.013,34.132,39.888,164.831,44.824,4096.0,0.0,0.0,0,1688564521.0472,2023-07-05 15:42:01,Rest
113,0,20.115,43.548,14.865,35.382,72.611,41.906,56.374,70.678,-88.73,54.18,34.708,-2.372,11.15,25.861,141.484,162.306,-273.229,28.945,16.784,8.032,-6.187,-9.562,17.296,14.15,28.306,-12.685,106.5,65.921,32.049,39.336,163.129,44.779,4096.0,0.0,0.0,0,1688564521.0551,2023-07-05 15:42:01,Rest
114,0,23.681,54.262,26.633,46.105,81.76,49.549,61.441,81.366,-88.129,61.298,39.796,1.729,16.262,24.811,143.904,165.218,-282.69,27.38,22.403,13.659,-4.131,-12.114,28.55,17.209,33.4,-3.963,116.639,73.54,38.164,50.567,168.601,55.493,4096.0,0.0,0.0,0,1688564521.0629,2023-07-05 15:42:01,Rest
115,0,20.583,51.134,27.119,50.67,85.265,50.524,61.892,80.26,-87.016,62.261,42.83,5.825,18.295,27.86,146.322,164.028,-271.649,29.401,25.454,11.596,-8.226,-16.712,30.57,16.168,31.83,-2.422,116.01,75.515,41.712,54.103,175.092,59.024,4096.0,0.0,0.0,0,1688564521.0709,2023-07-05 15:42:01,Rest
116,0,14.415,37.251,12.235,38.836,73.909,42.277,56.194,68.909,-88.978,60.662,34.078,-3.402,11.616,32.955,150.786,160.278,-260.619,29.884,19.281,11.584,-11.804,-24.892,19.781,4.881,21.552,-16.252,100.525,61.095,29.375,39.704,162.11,45.645,3968.0,0.0,0.0,0,1688564521.0787,2023-07-05 15:42:01,Rest
117,0,5.179,24.406,-1.098,26.502,55.904,31.476,44.868,56.545,-92.988,50.355,27.384,-15.182,10.58,33.434,152.685,157.556,-268.555,31.904,20.286,18.745,-1.546,-32.04,10.54,-5.37,11.284,-34.166,85.055,44.64,18.587,23.271,138.381,26.131,4096.0,0.0,0.0,0,1688564521.0866,2023-07-05 15:42:01,Rest
118,0,0.051,17.209,-5.707,20.84,48.676,26.321,39.187,47.779,-96.993,41.595,27.357,-13.63,13.643,37.499,153.044,159.96,-273.922,41.606,29.488,21.8,16.387,-26.885,7.968,0.783,11.273,-40.792,80.872,44.083,19.081,16.075,131.071,18.421,4096.0,0.0,0.0,0,1688564521.0944,2023-07-05 15:42:01,Rest
119,0,6.711,19.754,-1.603,18.77,53.238,30.393,47.857,51.317,-98.945,52.825,30.915,-6.444,18.241,48.22,160.576,166.46,-266.476,51.298,33.557,31.512,31.227,-13.026,14.108,13.59,20.996,-32.554,86.426,54.285,20.086,18.62,139.649,25.062,4096.0,0.0,0.0,0,1688564521.1023,2023-07-05 15:42:01,Rest
120,0,13.364,26.906,3.521,23.874,59.332,34.974,55.494,56.901,-96.285,58.919,38.057,-3.876,26.932,48.684,166.051,166.806,-259.037,54.32,33.011,41.215,34.27,-7.889,20.241,14.088,25.585,-24.325,89.926,57.817,23.14,26.286,144.632,27.086,4096.0,0.0,0.0,0,1688564521.1101,2023-07-05 15:42:01,Rest
121,0,15.4,30.465,3.006,28.461,62.347,35.451,52.877,54.283,-95.164,46.565,38.531,-2.335,24.855,39.414,155.639,156.905,-256.729,51.192,30.929,32.976,26.551,-9.931,18.172,13.562,23.511,-27.374,89.836,59.296,28.752,29.334,143.975,26.035,4096.0,0.0,0.0,0,1688564521.118,2023-07-05 15:42:01,Rest
122,0,18.458,32.996,6.077,26.896,63.821,37.465,53.336,57.815,-100.704,48.568,32.857,-0.283,15.097,30.153,143.188,144.965,-255.96,38.846,24.75,24.234,21.401,-5.31,15.592,23.794,27.073,-26.322,97.943,65.385,28.211,31.354,148.954,34.206,4096.0,0.0,0.0,0,1688564521.1258,2023-07-05 15:42:01,Rest
123,0,23.563,41.673,14.267,29.943,67.344,40.501,59.943,64.929,-102.14,58.253,35.386,2.279,15.082,20.902,138.946,137.136,-257.753,23.438,19.602,21.649,16.769,-2.231,19.163,27.357,34.731,-17.587,109.116,69.418,26.646,39.007,157.515,44.418,4096.0,0.0,0.0,0,1688564521.1338,2023-07-05 15:42:01,Rest
124,0,27.638,50.853,19.888,39.134,74.449,43.022,62.957,64.352,-97.94,52.047,39.961,5.35,15.067,18.319,134.708,133.412,-256.983,16.754,17.533,11.381,1.895,-6.327,23.242,21.182,34.696,-13.471,110.544,73.447,34.304,44.091,162.993,53.082,3968.0,0.0,0.0,0,1688564521.1416,2023-07-05 15:42:01,Rest
125,0,30.172,53.876,24.992,44.731,80.522,47.078,62.894,66.849,-96.305,53.532,36.847,7.906,11.465,24.961,133.037,131.742,-247.504,16.737,19.053,7.783,-7.84,-7.345,25.78,17.062,32.612,-10.384,109.409,74.91,41.442,45.072,165.391,60.202,3968.0,0.0,0.0,0,1688564521.1495,2023-07-05 15:42:01,Rest
126,0,25.018,46.137,22.917,40.587,74.294,44.982,61.294,65.245,-98.258,61.675,34.761,2.775,16.065,29.547,139.051,130.586,-242.134,17.745,25.694,13.923,-6.808,-9.387,23.193,8.848,28.481,-11.91,103.152,62.54,34.741,42.977,158.566,52.969,4096.0,0.0,0.0,0,1688564521.1573,2023-07-05 15:42:01,Rest
127,0,12.186,28.16,4.451,23.641,56.289,33.666,51.499,46.225,-104.307,48.806,33.19,-7.986,17.073,32.079,145.572,136.603,-259.31,23.875,27.717,10.323,-8.338,-18.087,11.387,-6.018,13.083,-30.341,82.044,46.084,21.898,28.078,136.378,31.399,3968.0,0.0,0.0,0,1688564521.165,2023-07-05 15:42:01,Rest
0,0,5.514,16.349,-10.41,10.809,44.962,25.948,39.152,33.371,-111.375,39.023,28.033,-11.052,13.47,39.219,150.038,145.688,-277.494,33.073,29.226,8.263,-6.793,-18.069,6.765,-8.573,1.799,-44.656,67.617,43.988,18.29,13.705,122.409,20.609,0.0,0.0,221.0,0,1688564521.1728,2023-07-05 15:42:01,Rest
1,0,9.607,19.919,-5.276,16.946,47.991,27.971,44.236,38.46,-108.19,50.255,31.591,-7.455,22.678,45.327,154.498,146.567,-262.359,40.724,43.029,20.551,10.12,-2.682,12.393,4.755,11.019,-35.389,77.796,52.654,21.858,18.302,131.508,24.175,0.0,0.0,226.0,0,1688564521.1807,2023-07-05 15:42:01,Rest
2,0,15.232,22.973,0.364,18.979,48.967,31.017,53.926,39.959,-105.008,48.668,37.195,-5.91,30.34,45.282,154.344,142.322,-244.679,49.905,55.282,31.801,27.016,9.616,12.893,16.021,22.279,-28.182,86.427,58.236,20.812,24.431,136.5,25.688,0.0,0.0,211.0,0,1688564521.1885,2023-07-05 15:42:01,Rest
3,0,13.168,19.876,-4.759,11.787,47.381,30.473,47.212,34.796,-110.538,37.349,29.986,-6.929,22.113,41.138,149.579,142.692,-258.266,50.368,52.665,30.232,28.526,10.119,9.806,17.03,20.207,-35.838,80.705,56.641,18.742,19.796,127.142,24.637,0.0,0.0,224.0,0,1688564521.1963,2023-07-05 15:42:01,Rest
4,0,13.155,22.418,-4.242,16.899,53.482,30.443,43.578,35.273,-111.965,42.434,26.882,-6.922,16.455,37.511,144.306,141.012,-265.693,36.997,49.538,24.054,22.35,9.084,11.846,17.525,19.163,-36.315,81.137,56.072,20.26,21.313,127.527,28.199,0.0,0.0,121.0,0,1688564521.2041,2023-07-05 15:42:01,Rest
5,0,19.289,30.08,4.984,24.566,57.527,32.462,51.732,40.361,-110.316,47.515,32.49,-7.94,16.951,34.912,141.088,133.699,-249.545,33.374,53.075,23.518,20.278,11.637,12.859,21.606,25.291,-29.106,87.204,59.09,21.777,27.952,135.596,32.781,0.0,0.0,224.0,0,1688564521.2118,2023-07-05 15:42:01,Rest
