COUNTER,INTERPOLATED,Cz,Fz,Fp1,F7,F3,FC1,C3,FC5,FT9,T7,CP5,CP1,P3,P7,PO9,O1,Pz,Oz,O2,PO10,P8,P4,CP2,CP6,T8,FT10,FC6,C4,FC2,F4,F8,Fp2,HighBitFlex,SaturationFlag,RAW_CQ,MARKER_HARDWARE,MARKERS,Human Readable Time,New Label
3,0,-8.657,-11.624,-12.109,-13.788,-14.409,-17.142,-20.03,-10.964,-16.343,-16.343,-10.12,-8.77,-10.12,-8.77,-14.66,5.391,-14.66,-9.31,-17.199,-16.947,-11.099,-9.31,-10.126,-15.04,-16.947,-10.652,-14.881,-10.126,-13.746,-21.082,-26.013,-18.812,0.0,0.0,0.0,0,1688144466.4248,2023-06-30 19:01:06,Rest
4,0,-6.599,-5.465,-12.609,-13.262,-11.833,-14.051,-15.912,-11.978,-17.351,-17.351,-10.11,-7.225,-10.11,-7.225,-12.596,9.484,-12.596,-6.739,-13.083,-7.196,-5.453,-6.739,-6.018,-10.926,-7.196,-7.568,-7.694,-6.018,-9.633,-12.351,-19.326,-18.793,0.0,0.0,0.0,0,1688144466.4326,2023-06-30 19:01:06,Rest
5,0,-2.494,-4.434,-4.912,-12.736,-10.284,-8.914,-11.285,-5.306,-11.699,-11.699,-5.489,-7.217,-5.489,-7.217,-7.46,14.085,-7.46,-3.658,-7.947,-2.066,-2.886,-3.658,-1.401,-5.792,-2.066,-2.437,-1.026,-1.401,-2.964,-10.802,-12.135,-12.626,0.0,0.0,0.0,0,1688144466.4404,2023-06-30 19:01:06,Rest
6,0,-10.176,-11.602,-13.616,-16.822,-17.446,-15.053,-16.909,-14.522,-19.884,-19.884,-10.607,-15.407,-10.607,-15.407,-14.625,5.874,-14.625,-10.314,-15.111,-12.31,-12.617,-10.314,-9.596,-13.983,-12.31,-11.656,-15.37,-9.596,-12.182,-22.574,-23.393,-20.811,0.0,0.0,0.0,0,1688144466.4482,2023-06-30 19:01:06,Rest
7,0,-16.314,-14.665,-22.312,-20.391,-22.039,-20.673,-21.503,-21.68,-29.086,-29.086,-15.207,-17.441,-15.207,-17.441,-20.246,3.307,-20.246,-14.915,-17.658,-14.347,-16.702,-14.915,-15.734,-18.58,-14.347,-14.719,-24.064,-15.734,-16.781,-25.113,-30.542,-28.475,0.0,0.0,0.0,0,1688144466.456,2023-06-30 19:01:06,Rest
8,0,-4.002,-4.404,-4.871,-11.661,-10.746,-10.919,-12.26,-5.777,-16.761,-16.761,-3.921,-6.153,-3.921,-6.153,-6.393,14.062,-6.393,-1.068,-6.369,-1.525,-1.829,-1.068,-0.862,-5.754,-1.525,0.153,-5.597,-0.862,-3.444,-9.207,-14.63,-13.589,0.0,0.0,0.0,0,1688144466.4638,2023-06-30 19:01:06,Rest
9,0,10.347,8.921,8.454,-0.891,1.56,1.388,-0.977,2.938,-3.937,-3.937,6.329,3.587,6.329,3.587,5.396,22.245,5.396,13.79,1.322,9.235,10.468,13.79,13.484,6.035,9.235,11.424,8.241,13.484,6.805,4.635,-2.32,0.769,0.0,0.0,0.0,0,1688144466.4716,2023-06-30 19:01:06,Rest
10,0,12.898,12.498,3.835,0.134,2.07,2.923,1.073,-0.139,-5.47,-5.47,7.86,6.658,7.86,6.658,5.903,24.784,5.903,14.801,4.394,10.763,11.483,14.801,10.909,8.078,10.763,18.072,2.598,10.909,9.872,6.679,-6.416,-0.769,0.0,0.0,0.0,0,1688144466.4794,2023-06-30 19:01:06,Rest
11,0,20.57,17.096,12.028,6.282,4.63,5.994,6.195,9.595,0.171,0.171,16.561,12.286,16.561,12.286,16.144,29.882,16.144,20.934,15.148,13.826,18.131,20.934,16.533,15.755,13.826,32.399,8.743,16.533,20.109,15.894,-2.312,6.917,0.0,0.0,0.0,0,1688144466.4873,2023-06-30 19:01:06,Rest
12,0,27.721,25.788,23.799,16.522,9.748,14.185,13.874,17.783,9.393,9.393,26.278,17.909,26.278,17.909,24.837,34.463,24.837,29.11,19.744,18.935,26.31,29.11,27.787,23.936,18.935,36.465,22.566,27.787,26.236,26.637,6.912,17.668,0.0,0.0,0.0,0,1688144466.4951,2023-06-30 19:01:06,Rest
13,0,22.57,23.713,17.115,13.431,8.202,12.634,10.786,12.642,4.26,4.26,21.641,15.842,21.641,15.842,16.615,29.306,16.615,22.933,12.552,17.892,22.697,22.933,22.636,19.301,17.892,28.744,17.933,22.636,20.062,20.975,2.295,10.991,0.0,0.0,0.0,0,1688144466.5029,2023-06-30 19:01:06,Rest
14,0,22.548,20.103,14.536,10.856,9.218,8.523,8.726,14.166,4.256,4.256,19.058,14.802,19.058,14.802,15.574,25.69,15.574,20.861,13.052,17.874,23.187,20.861,21.077,18.257,17.874,30.764,13.817,21.077,20.042,17.88,0.755,9.443,0.0,0.0,0.0,0,1688144466.5107,2023-06-30 19:01:06,Rest
15,0,28.161,24.182,21.694,17.505,14.844,14.15,15.377,20.812,12.449,12.449,24.674,17.348,24.674,17.348,20.681,30.275,20.681,25.451,17.649,23.491,29.312,25.451,27.204,23.362,23.491,31.246,19.438,27.204,27.195,24.01,9.976,18.655,0.0,0.0,0.0,0,1688144466.5185,2023-06-30 19:01:06,Rest
16,0,17.374,16.985,12.963,10.316,9.194,10.037,8.702,12.082,6.801,6.801,14.916,11.696,14.916,11.696,9.39,24.61,9.39,13.642,6.873,16.808,19.036,13.642,16.418,14.629,16.808,16.87,12.246,16.418,17.946,14.252,3.818,7.365,0.0,0.0,0.0,0,1688144466.5263,2023-06-30 19:01:06,Rest
17,0,4.037,2.111,-0.37,-4.552,-3.111,-4.318,-5.651,0.287,-3.965,-3.965,1.581,2.975,1.581,2.975,-2.403,10.24,-2.403,0.821,-5.429,1.934,3.136,0.821,5.131,-0.242,1.934,7.632,1.988,5.131,1.534,-0.107,-7.968,-8.011,0.0,0.0,0.0,0,1688144466.5341,2023-06-30 19:01:06,Rest
18,0,3.52,0.06,-0.882,-5.059,-6.181,-5.338,-6.67,-1.251,-6.01,-6.01,2.604,0.923,2.604,0.923,-2.4,7.156,-2.4,1.333,-6.961,-1.142,1.595,1.333,7.687,-1.779,-1.142,3.525,1.986,7.687,-1.541,1.43,-10.01,-5.442,0.0,0.0,0.0,0,1688144466.5419,2023-06-30 19:01:06,Rest
19,0,-5.192,-5.575,-6.004,-10.177,-10.274,-8.919,-11.787,-8.934,-16.762,-16.762,-6.108,-6.763,-6.108,-6.763,-11.107,3.563,-11.107,-7.89,-14.638,-4.727,-7.628,-7.89,-3.591,-9.462,-4.727,-9.286,-10.824,-3.591,-7.175,-7.281,-20.246,-14.658,0.0,0.0,0.0,0,1688144466.5498,2023-06-30 19:01:06,Rest
20,0,-17.483,-20.427,-18.806,-22.975,-19.485,-20.693,-24.07,-21.22,-28.016,-28.016,-20.959,-17.515,-20.959,-17.515,-23.391,-6.174,-23.391,-20.69,-24.87,-15.48,-23.502,-20.69,-19.469,-23.284,-15.48,-16.449,-24.645,-19.469,-19.463,-21.618,-28.935,-32.574,0.0,0.0,0.0,0,1688144466.5576,2023-06-30 19:01:06,Rest
21,0,-8.756,-14.259,-14.176,-14.755,-15.879,-14.012,-17.899,-16.588,-15.693,-15.693,-9.667,-9.812,-9.667,-9.812,-14.146,2.541,-14.146,-9.399,-14.086,-9.829,-11.183,-9.399,-6.642,-13.527,-9.829,-5.674,-9.251,-6.642,-11.247,-6.739,-16.098,-22.295,0.0,0.0,0.0,0,1688144466.5654,2023-06-30 19:01:06,Rest
22,0,2.524,2.149,-1.354,-2.445,-6.129,-3.752,-6.098,-4.789,-6.968,-6.968,3.15,1.468,3.15,1.468,-2.349,15.346,-2.349,3.418,-3.314,1.451,4.198,3.418,4.635,1.855,1.451,1.504,2.541,4.635,2.597,6.587,-10.447,-7.928,0.0,0.0,0.0,0,1688144466.5732,2023-06-30 19:01:06,Rest
23,0,-14.897,-12.71,-16.21,-17.299,-15.857,-20.654,-20.436,-15.542,-25.404,-25.404,-17.857,-13.39,-17.857,-13.39,-19.253,2.523,-19.253,-15.028,-23.803,-16.993,-20.397,-15.028,-18.423,-17.614,-16.993,-15.916,-23.589,-18.423,-16.361,-17.498,-35.027,-25.851,0.0,0.0,0.0,0,1688144466.581,2023-06-30 19:01:06,Rest
24,0,-45.621,-43.435,-45.907,-39.824,-35.821,-43.175,-48.593,-40.118,-44.334,-44.334,-46.529,-36.431,-46.529,-36.431,-47.923,-15.41,-47.923,-45.752,-51.444,-49.252,-52.652,-45.752,-47.606,-49.872,-49.252,-45.101,-55.329,-47.606,-48.62,-46.169,-63.681,-52.465,0.0,216530944.0,0.0,0,1688144466.5888,2023-06-30 19:01:06,Rest
25,0,-51.211,-50.052,-52.009,-43.37,-41.421,-46.718,-54.179,-46.738,-46.851,-46.851,-47.507,-36.907,-47.507,-36.907,-52.998,-14.37,-52.998,-51.341,-51.392,-54.838,-55.673,-51.341,-51.657,-52.896,-54.838,-52.229,-57.835,-51.657,-53.183,-48.172,-68.228,-59.073,0.0,0.0,0.0,0,1688144466.5966,2023-06-30 19:01:06,Rest
26,0,-27.593,-31.559,-32.489,-30.519,-29.596,-32.327,-34.145,-30.809,-36.558,-36.558,-27.992,-23.55,-27.992,-23.55,-31.941,-4.622,-31.941,-27.724,-31.361,-31.729,-30.515,-27.724,-30.089,-30.814,-31.729,-30.66,-33.699,-30.089,-30.076,-29.681,-45.106,-44.157,0.0,0.0,0.0,0,1688144466.6044,2023-06-30 19:01:06,Rest
27,0,-3.999,-6.936,-10.428,-11.533,-12.148,-11.802,-12.594,-9.262,-17.054,-17.054,-7.984,-8.669,-7.984,-8.669,-8.342,6.653,-8.342,-3.617,-11.862,-7.619,-1.283,-3.617,-2.906,-9.266,-7.619,-7.575,-8.562,-2.906,-6.479,-6.085,-15.347,-19.009,0.0,0.0,0.0,0,1688144466.6123,2023-06-30 19:01:06,Rest
28,0,-0.922,4.341,-0.683,-4.349,-4.964,-4.106,-7.971,-1.568,-7.815,-7.815,-1.316,-1.488,-1.316,-1.488,-3.723,11.258,-3.723,-1.052,-3.141,-1.976,7.428,-1.052,4.781,-2.084,-1.976,-1.42,-1.381,4.781,-1.35,5.192,-8.672,-8.232,0.0,0.0,0.0,0,1688144466.6201,2023-06-30 19:01:06,Rest
29,0,-6.556,-3.348,-3.757,-9.468,-10.082,-9.737,-13.086,-7.201,-16.004,-16.004,-5.413,-6.61,-5.413,-6.61,-11.917,3.562,-11.917,-5.15,-8.261,-6.073,-3.85,-5.15,-3.933,-7.718,-6.073,-7.054,-3.429,-3.933,-8.521,1.6,-14.811,-16.933,0.0,0.0,0.0,0,1688144466.6279,2023-06-30 19:01:06,Rest
30,0,-3.476,-6.418,-5.802,-7.921,-10.072,-8.703,-9.999,-8.219,-13.939,-13.939,-3.871,-6.091,-3.871,-6.091,-8.831,4.07,-8.831,1.003,-9.789,1.106,-1.285,1.003,-1.367,-7.198,1.106,-6.534,0.161,-1.367,-4.414,1.599,-8.136,-16.404,0.0,0.0,0.0,0,1688144466.6357,2023-06-30 19:01:06,Rest
31,0,0.626,0.248,-0.673,-2.278,-5.451,-5.108,-3.841,-2.575,-3.679,-3.679,1.256,3.649,1.256,3.649,-0.625,12.776,-0.625,4.076,-3.632,5.716,6.913,4.076,4.782,0.494,5.716,-2.429,-1.376,4.782,1.738,4.671,-2.493,-7.678,0.0,0.0,0.0,0,1688144466.6435,2023-06-30 19:01:06,Rest
32,0,-9.621,-8.974,-5.796,-12.01,-12.618,-15.349,-13.571,-9.233,-15.459,-15.459,-7.966,-7.113,-7.966,-7.113,-12.407,5.078,-12.407,-8.223,-12.337,-11.709,-8.463,-8.223,-10.08,-10.777,-11.709,-13.185,-14.183,-10.08,-12.608,-5.58,-16.322,-18.429,3968.0,0.0,0.0,0,1688144466.6513,2023-06-30 19:01:06,Rest
33,0,-23.956,-26.895,-24.233,-24.805,-23.364,-28.654,-29.952,-23.568,-33.886,-33.886,-25.377,-25.549,-25.377,-25.549,-30.838,-10.808,-30.838,-24.609,-29.231,-28.603,-25.873,-24.609,-27.488,-30.746,-28.603,-27.004,-25.952,-27.488,-28.477,-19.919,-31.675,-35.317,3968.0,0.0,0.0,0,1688144466.6591,2023-06-30 19:01:06,Rest
34,0,-21.37,-22.258,-26.258,-21.707,-20.779,-26.576,-25.823,-23.032,-30.266,-30.266,-24.327,-19.376,-24.327,-19.376,-25.684,-8.236,-25.684,-21.511,-25.104,-20.89,-19.187,-21.511,-19.776,-24.056,-20.89,-19.293,-23.876,-19.776,-22.301,-16.825,-27.545,-31.183,3968.0,0.0,0.0,0,1688144466.6669,2023-06-30 19:01:06,Rest
35,0,-7.516,-5.842,-8.813,-10.927,-10.0,-12.717,-11.965,-10.201,-15.891,-15.891,-7.909,-6.036,-7.909,-6.036,-8.752,4.58,-8.752,-5.608,-9.709,-5.5,-5.335,-5.608,-2.85,-4.564,-5.5,-5.954,-11.045,-2.85,-7.934,0.098,-13.173,-18.856,3968.0,0.0,0.0,0,1688144466.6748,2023-06-30 19:01:06,Rest
36,0,-1.873,-2.762,-3.169,-5.793,-6.403,-6.044,-11.953,-5.58,-10.24,-10.24,-1.241,-6.543,-1.241,-6.543,-7.207,4.575,-7.207,-4.577,-9.7,-3.445,-0.719,-4.577,-1.31,-3.022,-3.445,-4.411,-4.886,-1.31,-3.315,4.196,-9.574,-14.227,4096.0,0.0,0.0,0,1688144466.6826,2023-06-30 19:01:06,Rest
37,0,-2.384,-4.808,-7.264,-5.787,-7.934,-8.6,-13.478,-7.112,-10.742,-10.742,-4.313,-5.512,-4.313,-5.512,-10.786,-1.577,-10.786,-9.184,-12.764,-5.491,0.306,-9.184,-4.383,-5.069,-5.491,-1.332,-6.93,-4.383,-3.824,0.093,-11.613,-13.188,3968.0,0.0,0.0,0,1688144466.6904,2023-06-30 19:01:06,Rest
38,0,5.815,2.881,2.477,-0.658,-2.803,-3.468,-3.731,-0.445,-7.657,-7.657,2.351,2.179,2.351,2.179,-1.041,6.621,-1.041,4.146,-0.456,1.687,8.503,4.146,4.843,4.67,1.687,6.866,-0.263,4.843,0.278,9.827,-2.893,-7.027,4096.0,0.0,0.0,0,1688144466.6982,2023-06-30 19:01:06,Rest
39,0,14.007,12.1,12.721,7.027,6.934,6.782,3.958,9.802,0.035,0.035,13.619,7.812,13.619,7.812,10.743,21.472,10.743,17.461,12.353,8.345,18.74,17.461,13.547,10.813,8.345,10.445,9.471,13.547,8.987,19.039,5.307,1.689,4096.0,0.0,0.0,0,1688144466.706,2023-06-30 19:01:06,Rest
40,0,11.943,10.038,7.073,3.947,4.365,4.213,1.904,5.694,2.084,2.084,12.069,9.341,12.069,9.341,7.658,22.987,7.658,12.321,10.291,4.751,15.135,12.321,10.46,7.729,4.751,9.41,7.412,10.46,9.49,10.311,-1.358,1.175,4096.0,0.0,0.0,0,1688144466.7138,2023-06-30 19:01:06,Rest
41,0,5.271,3.368,1.43,-5.279,-5.885,-3.475,-1.684,-3.534,-3.041,-3.041,2.323,6.258,2.323,6.258,0.479,16.817,0.479,5.649,1.059,-0.889,5.386,5.649,4.302,4.135,-0.889,3.765,-0.792,4.302,0.772,3.128,-7.504,-9.584,4096.0,0.0,0.0,0,1688144466.7216,2023-06-30 19:01:06,Rest
42,0,-0.369,-0.221,0.916,-5.786,-7.416,-5.009,-6.805,-0.969,-5.6,-5.6,-0.753,1.128,-0.753,1.128,-3.108,15.775,-3.108,2.057,-5.09,-2.425,2.819,2.057,-0.313,-0.48,-2.425,-2.899,-5.915,-0.313,-2.815,2.613,-9.034,-12.649,4096.0,0.0,0.0,0,1688144466.7294,2023-06-30 19:01:06,Rest
43,0,-8.054,-5.856,-7.794,-7.829,-8.434,-11.152,-15.507,-4.554,-9.692,-9.692,-5.876,-5.02,-5.876,-5.02,-11.814,10.124,-11.814,-7.167,-11.232,-7.546,-3.331,-7.167,-6.973,-11.238,-7.546,-9.043,-14.618,-6.973,-7.423,-8.661,-18.246,-14.685,3968.0,0.0,0.0,0,1688144466.7373,2023-06-30 19:01:06,Rest
44,0,-15.73,-18.146,-19.569,-19.092,-17.134,-21.387,-23.177,-18.894,-20.954,-20.954,-18.165,-15.262,-18.165,-15.262,-21.536,-3.206,-21.536,-14.844,-18.906,-17.272,-16.135,-14.844,-16.188,-18.911,-17.272,-17.744,-24.337,-16.188,-18.686,-16.337,-24.888,-26.966,3968.0,0.0,0.0,0,1688144466.7451,2023-06-30 19:01:06,Rest
45,0,-13.153,-16.079,-16.988,-20.098,-17.117,-19.828,-21.104,-17.85,-24.006,-24.006,-17.122,-13.197,-17.122,-13.197,-17.416,-3.715,-17.416,-12.268,-17.35,-16.23,-12.533,-12.268,-12.585,-14.282,-16.23,-16.189,-19.702,-12.585,-14.569,-4.025,-17.179,-26.939,3968.0,0.0,0.0,0,1688144466.7529,2023-06-30 19:01:06,Rest
46,0,1.205,1.868,-1.089,-5.221,-3.78,-8.025,-8.275,-0.926,-9.126,-9.126,1.338,4.235,1.338,4.235,-0.493,12.17,-0.493,0.552,-2.988,1.204,5.41,0.552,6.383,0.589,1.204,4.832,0.81,6.383,4.913,13.397,-2.817,-8.469,4096.0,0.0,0.0,0,1688144466.7607,2023-06-30 19:01:06,Rest
47,0,11.962,11.088,12.232,7.08,4.421,0.692,1.979,8.296,3.179,3.179,12.607,11.915,12.607,11.915,10.266,20.355,10.266,12.847,8.286,12.474,15.139,12.847,16.11,9.298,12.474,14.049,12.592,16.11,11.056,16.97,5.895,1.273,4096.0,0.0,0.0,0,1688144466.7685,2023-06-30 19:01:06,Rest
48,0,8.364,6.978,10.17,6.048,3.392,2.74,1.465,7.776,1.639,1.639,7.472,7.805,7.472,7.805,6.67,14.699,6.67,10.785,6.228,6.314,13.587,10.785,8.922,5.703,6.314,5.325,4.895,8.922,5.409,12.855,5.889,-1.802,4096.0,0.0,0.0,0,1688144466.7763,2023-06-30 19:01:06,Rest
49,0,3.745,5.947,1.963,2.968,3.9,0.688,-2.635,7.768,-0.412,-0.412,2.341,9.334,2.341,9.334,0.515,12.123,0.515,2.065,0.587,2.209,11.524,2.065,5.327,1.086,2.209,4.295,-1.77,5.327,5.404,12.33,2.81,-2.312,4096.0,0.0,0.0,0,1688144466.7841,2023-06-30 19:01:06,Rest
50,0,1.692,3.379,-0.088,2.453,2.36,-4.948,-6.219,2.637,-2.461,-2.461,0.802,6.25,0.802,6.25,-2.559,10.061,-2.559,-1.011,-5.561,1.182,5.364,-1.011,2.248,-1.476,1.182,2.754,-1.768,2.248,2.325,11.293,1.27,-5.384,4096.0,0.0,0.0,0,1688144466.7919,2023-06-30 19:01:06,Rest
51,0,-7.019,-7.895,-5.211,-5.234,-7.377,-13.652,-13.385,-8.124,-12.192,-12.192,-5.859,-7.076,-5.859,-7.076,-9.729,0.318,-9.729,-7.67,-15.29,-10.09,-5.399,-7.67,-8.513,-9.672,-10.09,-9.032,-7.402,-8.513,-9.973,0.011,-7.441,-17.161,3968.0,0.0,0.0,0,1688144466.7998,2023-06-30 19:01:06,Rest
52,0,-13.16,-13.522,-13.403,-13.938,-13.005,-16.2,-19.007,-12.727,-20.377,-20.377,-12.001,-10.143,-12.001,-10.143,-15.867,-1.732,-15.867,-10.224,-17.836,-13.666,-7.955,-10.224,-8.505,-13.761,-13.666,-12.096,-12.005,-8.505,-14.062,-5.112,-15.63,-21.755,3968.0,0.0,0.0,0,1688144466.8076,2023-06-30 19:01:06,Rest
53,0,-10.073,-9.923,-11.853,-13.924,-12.992,-12.085,-18.475,-11.689,-20.357,-20.357,-9.94,-7.059,-9.94,-7.059,-13.802,3.905,-13.802,-4.578,-12.183,-6.48,-3.337,-4.578,-3.373,-10.161,-6.48,-10.035,-12.505,-3.373,-10.974,2.065,-13.565,-17.123,4096.0,0.0,0.0,0,1688144466.8154,2023-06-30 19:01:06,Rest
54,0,-16.21,-16.06,-15.939,-20.57,-20.663,-18.221,-24.605,-22.436,-30.07,-30.07,-16.077,-17.81,-16.077,-17.81,-20.448,-6.857,-20.448,-14.308,-19.343,-18.769,-16.141,-14.308,-18.227,-19.372,-18.769,-21.296,-21.714,-18.227,-21.209,-5.622,-21.749,-24.278,3968.0,0.0,0.0,0,1688144466.8232,2023-06-30 19:01:06,Rest
55,0,-34.125,-33.975,-36.416,-35.919,-31.913,-36.646,-39.949,-38.808,-47.971,-47.971,-35.529,-31.624,-35.529,-31.624,-38.87,-22.732,-38.87,-35.298,-38.279,-41.804,-39.691,-35.298,-38.188,-37.284,-41.804,-36.131,-36.037,-38.188,-39.631,-24.572,-42.219,-43.209,3968.0,0.0,0.0,0,1688144466.831,2023-06-30 19:01:06,Rest
56,0,-41.775,-43.163,-46.113,-41.518,-35.468,-44.294,-47.594,-42.867,-48.947,-48.947,-43.178,-34.667,-43.178,-34.667,-47.541,-23.734,-47.541,-39.361,-46.95,-42.274,-43.75,-39.361,-41.736,-42.882,-42.274,-42.755,-44.198,-41.736,-44.714,-29.158,-47.812,-50.85,3968.0,0.0,0.0,0,1688144466.8388,2023-06-30 19:01:06,Rest
57,0,-41.221,-43.12,-41.968,-39.94,-37.481,-43.737,-47.034,-41.8,-43.263,-43.263,-39.549,-38.218,-39.549,-38.218,-46.981,-25.759,-46.981,-39.834,-46.391,-39.671,-41.657,-39.834,-44.256,-44.376,-39.671,-45.274,-52.351,-44.256,-42.62,-28.616,-46.228,-50.287,3968.0,0.0,0.0,0,1688144466.8466,2023-06-30 19:01:06,Rest
58,0,-42.717,-45.126,-44.488,-42.462,-38.468,-47.279,-48.012,-44.32,-46.294,-46.294,-42.071,-40.741,-42.071,-40.741,-49.495,-31.881,-49.495,-47.991,-48.393,-50.902,-49.812,-47.991,-49.335,-49.454,-50.902,-42.155,-55.885,-49.335,-45.139,-33.198,-51.304,-53.311,3968.0,0.0,0.0,0,1688144466.8544,2023-06-30 19:01:06,Rest
59,0,-35.502,-38.42,-40.345,-35.759,-29.208,-41.084,-41.816,-37.103,-40.1,-40.1,-39.467,-30.455,-39.467,-30.455,-43.811,-25.702,-43.811,-39.746,-43.222,-44.703,-42.59,-39.746,-39.552,-39.159,-44.703,-30.33,-44.046,-39.552,-37.922,-22.407,-44.081,-45.573,3968.0,0.0,0.0,0,1688144466.8623,2023-06-30 19:01:06,Rest
60,0,-22.146,-22.501,-22.886,-21.379,-17.908,-27.211,-29.479,-23.746,-24.178,-24.178,-26.108,-19.666,-26.108,-19.666,-29.934,-18.504,-29.934,-25.874,-32.42,-25.191,-23.08,-25.874,-26.705,-24.263,-25.191,-19.029,-29.657,-26.705,-22.515,-4.454,-26.618,-27.084,3968.0,0.0,0.0,0,1688144466.8701,2023-06-30 19:01:06,Rest
61,0,-23.661,-22.478,-23.376,-19.308,-18.403,-29.233,-32.011,-22.185,-24.154,-24.154,-25.057,-25.281,-25.057,-25.281,-29.392,-20.022,-29.392,-29.434,-31.876,-28.752,-26.643,-29.434,-27.702,-28.337,-28.752,-20.547,-29.115,-27.702,-25.566,-7.011,-28.129,-27.569,3968.0,0.0,0.0,0,1688144466.8779,2023-06-30 19:01:06,Rest
62,0,-30.298,-31.165,-35.648,-26.974,-24.02,-35.352,-39.151,-28.823,-32.327,-32.327,-31.18,-32.941,-31.18,-32.941,-37.047,-20.002,-37.047,-29.405,-35.942,-37.432,-35.325,-29.405,-29.724,-33.944,-37.432,-26.674,-31.135,-29.724,-34.762,-15.713,-39.371,-39.837,3968.0,0.0,0.0,0,1688144466.8857,2023-06-30 19:01:06,Rest
63,0,-22.583,-23.449,-27.415,-25.41,-21.434,-29.681,-31.427,-29.306,-26.659,-26.659,-23.976,-25.735,-23.976,-25.735,-30.35,-15.884,-30.35,-18.105,-29.758,-27.661,-22.995,-18.105,-22.01,-24.176,-27.661,-20.499,-24.956,-22.01,-25.506,-10.574,-32.672,-34.674,3968.0,0.0,0.0,0,1688144466.8935,2023-06-30 19:01:06,Rest
64,0,-16.412,-16.253,-17.654,-20.261,-17.314,-25.553,-26.273,-24.154,-21.509,-21.509,-19.341,-17.513,-19.341,-17.513,-21.098,-14.331,-21.098,-18.087,-25.118,-22.51,-15.799,-18.087,-20.451,-21.078,-22.51,-14.843,-23.907,-20.451,-17.795,-7.49,-22.393,-24.906,0.0,0.0,0.0,0,1688144466.9013,2023-06-30 19:01:06,Rest
65,0,-24.593,-25.459,-27.882,-25.364,-22.932,-29.113,-32.394,-24.13,-27.123,-27.123,-26.494,-24.155,-26.494,-24.155,-27.737,-15.853,-27.737,-26.778,-29.191,-31.197,-25.517,-26.778,-29.652,-29.254,-31.197,-23.538,-33.617,-29.652,-27.511,-16.191,-31.592,-32.053,0.0,0.0,0.0,0,1688144466.9091,2023-06-30 19:01:06,Rest
66,0,-28.667,-31.068,-34.514,-31.486,-30.594,-32.158,-35.436,-31.278,-30.17,-30.17,-26.98,-30.279,-26.98,-30.279,-33.857,-14.813,-33.857,-25.214,-29.674,-32.703,-27.029,-25.214,-32.696,-30.762,-32.703,-30.687,-37.169,-32.696,-33.632,-22.323,-38.221,-38.681,0.0,0.0,0.0,0,1688144466.9169,2023-06-30 19:01:06,Rest
67,0,-25.052,-25.914,-27.308,-28.381,-26.465,-31.101,-32.326,-31.247,-27.578,-27.578,-23.367,-23.076,-23.367,-23.076,-27.163,-9.163,-27.163,-18.017,-26.059,-27.035,-19.83,-18.017,-27.028,-27.145,-27.035,-27.07,-30.985,-27.028,-30.524,-16.665,-30.498,-35.568,0.0,0.0,0.0,0,1688144466.9248,2023-06-30 19:01:06,Rest
68,0,-23.49,-23.327,-23.182,-23.742,-17.729,-25.947,-29.22,-22.506,-23.452,-23.452,-23.856,-16.393,-23.856,-16.393,-24.575,-7.104,-24.575,-15.437,-23.983,-24.446,-17.76,-15.437,-23.415,-25.581,-24.446,-22.432,-25.318,-23.415,-25.371,-8.452,-25.344,-33.484,0.0,0.0,0.0,0,1688144466.9326,2023-06-30 19:01:06,Rest
69,0,-17.831,-19.717,-20.085,-18.083,-14.638,-18.749,-24.58,-15.824,-16.769,-16.769,-18.709,-13.815,-18.709,-13.815,-24.55,-5.048,-24.55,-13.885,-17.299,-21.348,-14.669,-13.885,-21.342,-20.944,-21.348,-14.725,-21.194,-21.342,-16.636,-2.808,-23.782,-26.278,0.0,0.0,0.0,0,1688144466.9404,2023-06-30 19:01:06,Rest
70,0,-12.178,-12.013,-14.429,-11.917,-12.062,-17.193,-20.457,-12.734,-10.604,-10.604,-12.03,-8.166,-12.03,-8.166,-16.329,4.691,-16.329,-11.822,-11.647,-17.228,-9.019,-11.822,-17.222,-15.8,-17.228,-8.05,-17.075,-17.222,-13.033,1.294,-18.123,-19.079,0.0,0.0,0.0,0,1688144466.9482,2023-06-30 19:01:06,Rest
71,0,-15.24,-13.026,-16.464,-15.491,-11.025,-21.787,-21.461,-13.234,-10.081,-10.081,-16.117,-8.158,-16.117,-8.158,-16.825,4.174,-16.825,-13.347,-18.295,-17.723,-10.547,-13.347,-17.205,-16.297,-17.723,-13.677,-18.595,-17.205,-16.606,1.292,-19.641,-25.72,0.0,0.0,0.0,0,1688144466.956,2023-06-30 19:01:06,Rest
72,0,-20.347,-19.673,-23.108,-25.209,-18.699,-25.863,-26.563,-18.856,-18.268,-18.268,-22.761,-16.347,-22.761,-16.347,-28.591,-10.687,-28.591,-21.53,-28.523,-19.754,-19.245,-21.53,-22.311,-22.941,-19.754,-22.373,-25.748,-22.311,-21.713,-4.857,-24.745,-32.354,0.0,0.0,0.0,0,1688144466.9638,2023-06-30 19:01:06,Rest
73,0,-26.475,-23.751,-27.183,-29.283,-24.828,-29.424,-34.733,-24.985,-29.008,-29.008,-27.349,-22.478,-27.349,-22.478,-32.661,-17.337,-32.661,-28.169,-33.617,-23.321,-26.398,-28.169,-27.412,-31.627,-23.321,-23.888,-31.358,-27.412,-28.863,-10.487,-26.769,-33.347,0.0,0.0,0.0,0,1688144466.9716,2023-06-30 19:01:06,Rest
74,0,-29.522,-24.752,-27.668,-29.253,-23.266,-30.419,-35.211,-25.472,-32.053,-32.053,-30.907,-22.968,-30.907,-22.968,-31.091,-16.295,-31.091,-27.116,-32.047,-24.322,-26.884,-27.116,-26.872,-31.083,-24.322,-23.351,-30.302,-26.872,-28.835,-9.965,-30.329,-37.412,0.0,0.0,0.0,0,1688144466.9794,2023-06-30 19:01:06,Rest
75,0,-20.271,-21.654,-23.542,-25.126,-23.243,-27.315,-27.491,-21.348,-26.386,-26.386,-25.753,-19.871,-25.753,-19.871,-27.986,-16.278,-27.986,-21.453,-25.355,-20.712,-21.222,-21.453,-21.21,-21.83,-20.712,-18.717,-24.124,-21.21,-20.609,-4.831,-29.274,-32.764,0.0,0.0,0.0,0,1688144466.9873,2023-06-30 19:01:06,Rest
76,0,-17.177,-20.607,-23.006,-22.539,-24.244,-27.8,-27.464,-23.376,-25.335,-25.335,-22.654,-20.876,-22.654,-20.876,-23.86,-12.164,-23.86,-22.457,-26.354,-21.203,-21.201,-22.457,-20.676,-23.345,-21.203,-17.674,-25.637,-20.676,-23.662,-6.364,-26.683,-23.509,0.0,0.0,0.0,0,1688144466.9951,2023-06-30 19:01:06,Rest
77,0,-33.041,-29.808,-33.229,-32.763,-28.83,-36.993,-38.195,-36.16,-36.58,-36.58,-33.902,-33.15,-33.902,-33.15,-32.545,-15.225,-32.545,-31.143,-38.111,-30.404,-32.963,-31.143,-31.414,-35.105,-30.404,-30.464,-37.906,-31.414,-35.934,-18.653,-38.952,-37.83,0.0,0.0,0.0,0,1688144467.0029,2023-06-30 19:01:07,Rest
78,0,-43.767,-42.074,-41.905,-46.562,-41.097,-44.641,-48.403,-47.395,-49.863,-49.863,-45.139,-44.388,-45.139,-44.388,-48.907,-30.067,-48.907,-37.772,-44.733,-39.082,-43.688,-37.772,-42.653,-42.755,-39.082,-40.68,-45.041,-42.653,-43.07,-29.905,-50.696,-56.748,0.0,0.0,0.0,0,1688144467.0107,2023-06-30 19:01:07,Rest
79,0,-39.624,-44.081,-41.863,-44.466,-41.568,-45.109,-48.866,-45.298,-49.301,-49.301,-43.557,-42.294,-43.557,-42.294,-47.833,-33.111,-47.833,-39.784,-45.713,-39.556,-42.108,-39.784,-42.611,-44.761,-39.556,-34.491,-40.385,-42.611,-44.564,-26.289,-42.961,-50.544,0.0,0.0,0.0,0,1688144467.0185,2023-06-30 19:01:07,Rest
80,0,-39.585,-37.889,-39.26,-35.713,-31.28,-41.477,-44.719,-39.618,-41.567,-41.567,-39.927,-38.666,-39.927,-38.666,-39.588,-28.467,-39.588,-43.33,-47.204,-37.979,-37.967,-43.33,-39.494,-43.179,-37.979,-30.871,-39.32,-39.494,-42.982,-19.09,-34.208,-41.784,0.0,0.0,0.0,0,1688144467.0263,2023-06-30 19:01:07,Rest
81,0,-48.767,-40.925,-43.319,-40.8,-37.909,-44.51,-49.285,-45.213,-46.137,-46.137,-46.035,-42.726,-46.035,-42.726,-49.795,-34.586,-49.795,-50.459,-51.767,-44.089,-44.589,-50.459,-47.139,-45.698,-44.089,-39.037,-47.99,-47.139,-45.501,-27.268,-43.396,-50.451,0.0,0.0,0.0,0,1688144467.0341,2023-06-30 19:01:07,Rest
82,0,-58.452,-53.692,-54.034,-53.567,-52.216,-56.761,-61.531,-55.414,-56.337,-56.337,-57.772,-49.855,-57.772,-49.855,-65.627,-41.211,-65.627,-58.606,-62.474,-57.365,-57.352,-58.606,-59.388,-59.484,-57.365,-47.707,-57.164,-59.388,-58.776,-41.585,-55.648,-60.647,0.0,0.0,0.0,0,1688144467.0419,2023-06-30 19:01:07,Rest
83,0,-60.955,-58.249,-58.591,-56.075,-48.578,-60.29,-64.544,-58.433,-55.256,-55.256,-62.325,-52.879,-62.325,-52.879,-67.098,-40.658,-67.098,-63.158,-67.022,-60.381,-61.393,-63.158,-59.841,-66.085,-60.381,-51.245,-58.643,-59.841,-64.352,-42.568,-57.129,-62.636,0.0,0.0,0.0,0,1688144467.0498,2023-06-30 19:01:07,Rest
84,0,-58.332,-54.092,-56.483,-52.945,-44.943,-52.033,-59.868,-56.325,-52.127,-52.127,-59.189,-52.826,-59.189,-52.826,-62.932,-41.13,-62.932,-61.045,-61.832,-53.149,-58.258,-61.045,-57.731,-59.871,-53.149,-50.682,-56.535,-57.731,-58.652,-37.915,-57.072,-63.598,0.0,0.0,0.0,0,1688144467.0576,2023-06-30 19:01:07,Rest
85,0,-56.225,-51.989,-54.378,-53.917,-51.046,-53.518,-57.759,-55.244,-53.099,-53.099,-56.568,-49.7,-56.568,-49.7,-61.845,-36.99,-61.845,-54.324,-58.184,-49.509,-54.101,-54.324,-57.161,-56.737,-49.509,-47.045,-55.967,-57.161,-57.057,-37.877,-59.064,-63.534,0.0,0.0,0.0,0,1688144467.0654,2023-06-30 19:01:07,Rest
86,0,-48.996,-44.765,-46.639,-46.69,-43.31,-52.952,-49.505,-47.504,-46.386,-46.386,-47.802,-42.478,-47.802,-42.478,-52.049,-30.805,-52.049,-44.536,-50.954,-43.312,-43.289,-44.536,-42.247,-50.533,-43.312,-37.776,-49.251,-42.247,-50.34,-29.642,-49.271,-55.786,0.0,0.0,0.0,0,1688144467.0732,2023-06-30 19:01:07,Rest
87,0,-37.677,-31.4,-32.247,-34.348,-30.459,-37.53,-39.721,-36.186,-36.093,-36.093,-35.459,-35.263,-35.459,-35.263,-37.652,-29.238,-37.652,-33.733,-36.558,-29.436,-31.975,-33.733,-26.324,-36.65,-29.436,-26.98,-34.857,-26.324,-35.432,-16.293,-35.389,-43.435,0.0,0.0,0.0,0,1688144467.081,2023-06-30 19:01:07,Rest
88,0,-36.102,-31.881,-31.703,-35.851,-34.015,-34.418,-42.243,-37.174,-36.057,-36.057,-33.374,-36.252,-33.374,-36.252,-37.615,-27.159,-37.615,-28.576,-34.472,-24.796,-31.43,-28.576,-31.933,-33.54,-24.796,-25.929,-31.236,-31.933,-33.348,-17.301,-36.891,-40.83,0.0,0.0,0.0,0,1688144467.0888,2023-06-30 19:01:07,Rest
89,0,-36.578,-37.997,-37.306,-39.914,-35.517,-40.532,-43.225,-41.748,-37.558,-37.558,-34.878,-33.142,-34.878,-33.142,-40.651,-22.521,-40.651,-24.962,-35.975,-26.308,-28.837,-24.962,-33.95,-34.531,-26.308,-27.44,-32.741,-33.95,-35.876,-20.357,-37.879,-46.937,0.0,0.0,0.0,0,1688144467.0966,2023-06-30 19:01:07,Rest
90,0,-26.808,-28.737,-30.097,-31.677,-26.26,-32.806,-33.448,-35.046,-29.836,-29.836,-27.671,-23.887,-27.671,-23.887,-30.364,-17.376,-30.364,-19.813,-26.717,-20.647,-18.563,-19.813,-21.108,-25.787,-20.647,-21.264,-23.487,-21.108,-26.106,-10.091,-25.545,-41.766,0.0,0.0,0.0,0,1688144467.1044,2023-06-30 19:01:07,Rest
91,0,-25.756,-21.536,-25.456,-27.547,-26.234,-27.65,-33.415,-28.351,-26.732,-26.732,-26.106,-25.4,-26.106,-25.4,-27.26,-12.235,-27.26,-20.818,-25.154,-21.651,-21.105,-20.818,-21.599,-25.249,-21.651,-17.657,-23.464,-21.599,-24.543,-11.618,-26.032,-31.991,0.0,0.0,0.0,0,1688144467.1123,2023-06-30 19:01:07,Rest
92,0,-41.1,-36.884,-36.189,-36.741,-35.429,-39.918,-44.652,-37.032,-37.464,-37.464,-37.351,-34.084,-37.351,-34.084,-44.139,-17.346,-44.139,-33.605,-39.473,-38.023,-39.015,-33.605,-38.484,-41.105,-38.023,-30.447,-40.859,-38.484,-41.425,-32.611,-44.962,-42.205,0.0,0.0,0.0,0,1688144467.1201,2023-06-30 19:01:07,Rest
93,0,-55.916,-56.315,-52.547,-52.073,-47.689,-54.223,-57.415,-56.975,-52.796,-52.796,-52.683,-45.321,-52.683,-45.321,-61.513,-34.235,-61.513,-50.99,-55.315,-53.866,-55.882,-50.99,-52.79,-56.946,-53.866,-49.884,-55.675,-52.79,-57.265,-47.435,-59.774,-66.241,0.0,0.0,0.0,0,1688144467.1279,2023-06-30 19:01:07,Rest
94,0,-60.983,-63.431,-64.789,-63.292,-59.937,-62.366,-67.604,-71.263,-62.477,-62.477,-63.388,-60.645,-63.388,-60.645,-67.599,-43.422,-67.599,-60.161,-66.531,-58.936,-66.585,-60.161,-61.959,-62.524,-58.936,-56.494,-62.791,-61.959,-64.38,-51.486,-65.861,-74.372,0.0,0.0,0.0,0,1688144467.1357,2023-06-30 19:01:07,Rest
95,0,-62.459,-63.88,-65.749,-61.692,-57.828,-63.84,-65.999,-68.118,-63.951,-63.951,-62.3,-60.072,-62.3,-60.072,-67.532,-38.768,-67.532,-60.613,-66.976,-59.389,-67.031,-60.613,-64.458,-62.461,-59.389,-53.364,-66.315,-64.458,-65.34,-52.459,-67.845,-69.687,0.0,0.0,0.0,0,1688144467.1435,2023-06-30 19:01:07,Rest
96,0,-66.495,-65.353,-62.097,-58.044,-52.135,-61.727,-63.884,-63.439,-61.838,-61.838,-61.726,-51.815,-61.726,-51.815,-69.513,-38.729,-69.513,-62.601,-63.836,-61.891,-64.914,-62.601,-63.882,-64.961,-61.891,-57.409,-67.785,-63.882,-67.324,-53.944,-70.339,-71.154,3968.0,0.0,0.0,0,1688144467.1513,2023-06-30 19:01:07,Rest
97,0,-69.502,-66.312,-65.109,-63.109,-58.23,-64.227,-69.456,-66.961,-62.289,-62.289,-67.812,-59.448,-67.812,-59.448,-72.005,-48.424,-72.005,-63.563,-66.333,-64.903,-69.46,-63.563,-65.867,-68.482,-64.903,-62.475,-72.328,-65.867,-69.306,-58.501,-72.83,-74.157,3968.0,0.0,0.0,0,1688144467.1591,2023-06-30 19:01:07,Rest
98,0,-59.186,-58.561,-59.921,-58.435,-53.049,-60.064,-61.702,-60.234,-56.591,-56.591,-59.035,-57.851,-59.035,-57.851,-61.687,-46.839,-61.687,-52.229,-59.607,-56.641,-60.681,-52.229,-57.604,-57.655,-56.641,-50.629,-65.596,-57.604,-58.478,-53.831,-63.023,-66.398,3968.0,0.0,0.0,0,1688144467.1669,2023-06-30 19:01:07,Rest
99,0,-46.32,-47.744,-45.516,-44.544,-38.139,-48.733,-49.345,-46.854,-44.751,-44.751,-45.143,-41.912,-45.143,-41.912,-49.33,-37.571,-49.33,-41.418,-47.252,-44.802,-46.276,-41.418,-43.714,-44.789,-44.802,-36.746,-46.575,-43.714,-45.1,-38.408,-51.689,-59.672,3968.0,0.0,0.0,0,1688144467.1748,2023-06-30 19:01:07,Rest
100,0,-51.909,-52.307,-51.106,-50.647,-45.785,-52.271,-59.029,-53.98,-48.293,-48.293,-54.32,-51.092,-54.32,-51.092,-56.966,-45.218,-56.966,-50.086,-56.939,-49.88,-55.964,-50.086,-50.331,-51.917,-49.88,-44.394,-50.115,-50.331,-52.739,-41.956,-61.371,-65.247,3968.0,0.0,0.0,0,1688144467.1826,2023-06-30 19:01:07,Rest
101,0,-61.591,-61.988,-63.351,-63.404,-55.986,-62.977,-65.63,-64.172,-61.052,-61.052,-62.975,-65.385,-62.975,-65.385,-66.13,-61.566,-66.13,-59.258,-68.665,-58.539,-66.154,-59.258,-61.039,-60.574,-58.539,-53.571,-66.458,-61.039,-62.42,-54.722,-71.556,-67.744,3968.0,0.0,0.0,0,1688144467.1904,2023-06-30 19:01:07,Rest
102,0,-53.844,-53.73,-54.066,-52.582,-44.659,-55.229,-54.806,-52.837,-55.868,-55.868,-50.616,-53.024,-50.616,-53.024,-56.33,-57.918,-56.33,-48.44,-57.325,-51.821,-51.231,-48.44,-50.219,-51.804,-51.821,-43.272,-56.658,-50.219,-52.624,-48.007,-60.726,-58.454,3968.0,0.0,0.0,0,1688144467.1982,2023-06-30 19:01:07,Rest
103,0,-42.52,-41.38,-43.253,-41.771,-37.954,-44.416,-51.165,-44.587,-42.492,-42.492,-43.393,-42.725,-43.393,-42.725,-47.565,-40.442,-47.565,-36.608,-45.997,-44.596,-39.909,-36.608,-38.386,-43.556,-44.596,-30.421,-39.183,-38.386,-43.35,-36.688,-49.907,-52.248,3968.0,0.0,0.0,0,1688144467.206,2023-06-30 19:01:07,Rest
104,0,-43.502,-42.364,-46.284,-46.853,-42.015,-44.884,-52.138,-51.203,-42.962,-42.962,-46.424,-45.756,-46.424,-45.756,-51.103,-36.303,-51.103,-40.158,-45.951,-45.064,-43.455,-40.158,-41.421,-45.049,-45.064,-31.927,-43.754,-41.421,-44.331,-38.188,-50.369,-52.708,3968.0,0.0,0.0,0,1688144467.2138,2023-06-30 19:01:07,Rest
105,0,-48.581,-47.444,-47.774,-46.294,-40.436,-45.863,-51.062,-50.639,-46.505,-46.505,-46.377,-44.686,-46.377,-44.686,-53.614,-43.439,-53.614,-44.729,-49.491,-46.044,-44.436,-44.729,-45.478,-47.566,-46.044,-38.043,-54.981,-45.478,-48.385,-43.786,-55.442,-54.192,3968.0,0.0,0.0,0,1688144467.2216,2023-06-30 19:01:07,Rest
106,0,-50.07,-49.446,-47.214,-40.612,-41.42,-48.379,-55.109,-44.953,-44.922,-44.922,-46.843,-45.666,-46.843,-45.666,-53.048,-43.396,-53.048,-45.196,-53.028,-47.022,-44.904,-45.196,-47.995,-48.03,-47.022,-36.98,-58.0,-47.995,-52.435,-44.254,-61.534,-56.187,3968.0,0.0,0.0,0,1688144467.2294,2023-06-30 19:01:07,Rest
107,0,-45.409,-44.786,-45.63,-43.133,-41.891,-47.818,-51.468,-46.445,-45.389,-45.389,-44.747,-46.645,-44.747,-46.645,-48.896,-36.692,-48.896,-41.052,-46.827,-44.926,-40.761,-41.052,-44.873,-44.396,-44.926,-29.259,-52.307,-44.873,-45.211,-37.038,-56.35,-51.521,3968.0,0.0,0.0,0,1688144467.2373,2023-06-30 19:01:07,Rest
108,0,-39.216,-36.032,-38.412,-40.016,-34.165,-38.549,-42.707,-43.325,-43.294,-43.294,-38.555,-38.401,-38.555,-38.401,-41.675,-32.557,-41.675,-33.839,-36.534,-37.197,-29.962,-33.839,-35.606,-37.179,-37.197,-22.057,-40.984,-35.606,-33.895,-30.853,-43.998,-42.76,3968.0,0.0,0.0,0,1688144467.2451,2023-06-30 19:01:07,Rest
109,0,-37.64,-34.459,-35.3,-33.316,-33.106,-36.461,-44.201,-37.134,-37.103,-37.103,-38.516,-34.777,-38.516,-34.777,-41.633,-29.963,-41.633,-32.781,-38.035,-35.622,-30.444,-32.781,-34.034,-36.63,-35.622,-23.06,-39.918,-34.034,-36.422,-33.384,-45.491,-43.229,3968.0,0.0,0.0,0,1688144467.2529,2023-06-30 19:01:07,Rest
110,0,-36.065,-36.474,-38.338,-35.332,-38.196,-40.523,-42.62,-38.633,-33.992,-33.992,-38.478,-34.23,-38.478,-34.23,-42.616,-26.859,-42.616,-35.822,-39.534,-37.124,-35.024,-35.822,-36.049,-37.106,-37.124,-25.598,-43.465,-36.049,-36.898,-32.326,-48.519,-43.698,3968.0,0.0,0.0,0,1688144467.2607,2023-06-30 19:01:07,Rest
111,0,-27.32,-28.753,-31.128,-31.198,-30.473,-32.798,-31.307,-35.521,-30.372,-30.372,-29.218,-25.998,-29.218,-25.998,-32.327,-25.296,-32.327,-28.101,-31.297,-28.89,-25.768,-28.101,-23.718,-28.872,-28.89,-18.4,-33.687,-23.718,-26.103,-23.072,-37.2,-34.945,3968.0,0.0,0.0,0,1688144467.2685,2023-06-30 19:01:07,Rest
112,0,-16.022,-14.379,-16.752,-16.822,-16.61,-19.445,-24.103,-21.653,-19.583,-19.583,-17.918,-16.239,-17.918,-16.239,-20.0,-16.049,-20.0,-11.167,-19.995,-14.004,-8.323,-11.167,-8.325,-17.06,-14.004,-6.086,-18.284,-8.325,-16.343,-13.315,-23.33,-23.127,3968.0,0.0,0.0,0,1688144467.2763,2023-06-30 19:01:07,Rest
113,0,-3.71,-1.557,-5.465,-7.584,-7.884,-10.717,-14.858,-9.336,-5.219,-5.219,-5.092,-5.976,-5.092,-5.976,-10.246,-0.663,-10.246,3.701,-4.606,-0.158,7.566,3.701,-0.119,-3.723,-0.158,4.166,-4.946,-0.119,-3.519,1.043,-10.499,-10.297,3968.0,0.0,0.0,0,1688144467.2841,2023-06-30 19:01:07,Rest
114,0,1.416,4.08,-1.873,-6.039,-5.827,-6.607,-7.67,-4.716,0.934,0.934,0.548,0.177,0.548,0.177,-3.576,2.411,-3.576,4.722,3.083,3.429,12.682,4.722,3.467,1.404,3.429,7.748,2.231,3.467,3.145,5.141,-3.829,-3.626,4096.0,0.0,0.0,0,1688144467.2919,2023-06-30 19:01:07,Rest
115,0,-12.417,-8.732,-11.605,-12.181,-14.018,-14.798,-18.421,-11.884,-7.777,-7.777,-13.797,-8.02,-13.797,-8.02,-12.281,-8.862,-12.281,-9.627,-13.826,-9.895,-3.725,-9.627,-7.807,-12.942,-9.895,-5.58,-10.579,-7.807,-13.252,-11.771,-18.682,-17.967,3968.0,0.0,0.0,0,1688144467.2998,2023-06-30 19:01:07,Rest
116,0,-27.262,-23.068,-24.401,-21.39,-22.201,-28.103,-30.186,-22.118,-19.04,-19.04,-27.103,-18.258,-27.103,-18.258,-28.151,-12.439,-28.151,-21.913,-26.62,-23.205,-18.578,-21.913,-25.73,-27.786,-23.205,-19.919,-26.962,-25.73,-27.584,-23.542,-33.008,-31.782,3968.0,0.0,0.0,0,1688144467.3076,2023-06-30 19:01:07,Rest
117,0,-22.111,-17.409,-20.278,-19.832,-19.105,-25.513,-26.057,-18.51,-16.971,-16.971,-20.416,-13.116,-20.416,-13.116,-25.561,-4.742,-25.561,-16.256,-16.859,-16.522,-10.362,-16.256,-21.094,-21.61,-16.522,-14.776,-19.763,-21.094,-18.335,-14.297,-23.241,-25.09,3968.0,0.0,0.0,0,1688144467.3154,2023-06-30 19:01:07,Rest
118,0,-9.794,-8.171,-9.499,-11.615,-10.889,-14.729,-17.322,-10.807,-9.27,-9.27,-10.662,-5.419,-10.662,-5.419,-13.752,-0.127,-13.752,-5.993,-8.646,-5.234,0.919,-5.993,-5.191,-9.806,-5.234,-2.466,-8.472,-5.191,-8.07,-5.061,-12.459,-14.306,3968.0,0.0,0.0,0,1688144467.3232,2023-06-30 19:01:07,Rest
119,0,-7.735,-8.162,-8.465,-10.067,-7.804,-12.665,-13.718,-9.771,-6.187,-6.187,-9.626,-7.975,-9.626,-7.975,-12.714,-4.225,-12.714,-6.5,-10.686,-6.254,0.406,-6.5,-4.674,-8.259,-6.254,0.611,-13.074,-4.674,-8.062,-4.544,-13.984,-11.73,3968.0,0.0,0.0,0,1688144467.331,2023-06-30 19:01:07,Rest
120,0,-9.264,-4.568,-8.457,-10.569,-9.334,-12.653,-14.217,-7.2,-5.668,-5.668,-8.08,-10.016,-8.08,-10.016,-14.75,-5.758,-14.75,-9.055,-9.651,-7.784,0.918,-9.055,-8.255,-7.226,-7.784,3.171,-13.574,-8.255,-6.005,-5.051,-12.433,-11.719,4096.0,0.0,0.0,0,1688144467.3388,2023-06-30 19:01:07,Rest
121,0,-5.669,1.584,-3.838,-7.485,-10.349,-9.566,-15.74,-5.143,-7.199,-7.199,-6.022,-6.42,-6.022,-6.42,-9.613,0.396,-9.613,-4.435,-6.055,-2.141,3.478,-4.435,-0.05,-2.608,-2.141,7.779,-4.851,-0.05,-1.9,-2.997,-6.785,-10.682,4096.0,0.0,0.0,0,1688144467.3466,2023-06-30 19:01:07,Rest
122,0,-4.126,-0.979,-5.371,-9.014,-10.338,-9.044,-16.749,-12.311,-14.364,-14.364,-7.041,-8.975,-7.041,-8.975,-10.115,-0.117,-10.115,-2.381,-8.611,-1.114,1.938,-2.381,3.536,-3.118,-1.114,4.697,-4.846,3.536,-3.948,-3.506,-9.852,-11.184,3968.0,0.0,0.0,0,1688144467.3544,2023-06-30 19:01:07,Rest
123,0,-12.319,-7.638,-13.562,-16.177,-13.914,-14.671,-20.83,-19.471,-22.035,-22.035,-10.62,-18.7,-10.62,-18.7,-17.79,-13.437,-17.79,-8.014,-15.262,-10.335,-3.7,-8.014,-6.201,-10.799,-10.335,-1.455,-13.038,-6.201,-12.141,-8.626,-19.064,-15.784,3968.0,0.0,0.0,0,1688144467.3623,2023-06-30 19:01:07,Rest
124,0,-21.016,-12.753,-17.647,-21.796,-21.585,-21.828,-25.42,-22.013,-24.574,-24.574,-16.245,-22.78,-16.245,-22.78,-21.358,-18.034,-21.358,-11.592,-19.345,-16.984,-11.893,-11.592,-14.392,-15.399,-16.984,-6.064,-19.173,-14.392,-17.764,-15.277,-26.217,-22.428,3968.0,0.0,0.0,0,1688144467.3701,2023-06-30 19:01:07,Rest
125,0,-22.532,-16.839,-19.166,-24.336,-25.15,-25.393,-29.493,-27.114,-26.087,-26.087,-21.352,-22.245,-21.352,-22.245,-23.898,-15.967,-23.898,-14.142,-20.35,-17.992,-17.004,-14.142,-17.964,-17.945,-17.992,-10.669,-26.838,-17.964,-21.332,-19.873,-31.314,-26.504,3968.0,0.0,0.0,0,1688144467.3779,2023-06-30 19:01:07,Rest
126,0,-27.12,-23.482,-25.807,-28.41,-27.686,-30.49,-34.587,-31.697,-32.208,-32.208,-26.966,-28.37,-26.966,-28.37,-31.559,-21.586,-31.559,-21.813,-25.453,-23.61,-21.085,-21.813,-25.118,-26.124,-23.61,-18.343,-33.984,-25.118,-28.483,-26.513,-37.43,-32.625,3968.0,0.0,0.0,0,1688144467.3857,2023-06-30 19:01:07,Rest
127,0,-31.704,-27.557,-32.441,-32.48,-32.269,-34.558,-37.114,-32.69,-36.274,-36.274,-28.476,-31.928,-28.476,-31.928,-34.601,-21.053,-34.601,-21.791,-29.014,-28.197,-24.651,-21.791,-28.167,-31.734,-28.197,-23.96,-33.95,-28.167,-32.553,-31.61,-40.979,-40.277,3968.0,0.0,0.0,0,1688144467.3935,2023-06-30 19:01:07,Rest
0,0,-28.086,-28.554,-32.409,-33.472,-33.774,-32.987,-38.101,-33.682,-35.214,-35.214,-26.91,-27.285,-26.91,-27.285,-33.03,-16.933,-33.03,-19.72,-28.472,-28.681,-24.114,-19.72,-26.089,-30.165,-28.681,-24.961,-33.403,-26.089,-31.496,-32.603,-41.963,-42.798,0.0,0.0,0.0,0,1688144467.4013,2023-06-30 19:01:07,Rest
1,0,-31.644,-33.649,-34.426,-36.513,-33.228,-35.003,-43.186,-37.235,-37.228,-37.228,-32.519,-30.332,-32.519,-30.332,-38.12,-29.724,-38.12,-33.533,-36.641,-34.287,-28.7,-33.533,-33.748,-35.258,-34.287,-28.01,-40.542,-33.748,-34.538,-34.619,-46.532,-44.805,0.0,0.0,0.0,0,1688144467.4091,2023-06-30 19:01:07,Rest
2,0,-39.809,-39.251,-37.465,-36.476,-35.756,-40.091,-44.168,-37.71,-37.19,-37.19,-38.634,-36.961,-38.634,-36.961,-43.205,-37.379,-43.205,-40.671,-44.289,-38.352,-35.332,-40.671,-38.837,-40.346,-38.352,-31.055,-39.989,-38.837,-37.065,-33.56,-45.46,-43.735,0.0,0.0,0.0,0,1688144467.4169,2023-06-30 19:01:07,Rest
3,0,-31.572,-30.502,-29.743,-26.706,-31.109,-32.879,-35.414,-29.475,-29.468,-29.468,-28.349,-28.727,-28.349,-28.727,-36.502,-22.484,-36.502,-25.261,-33.486,-29.092,-24.538,-25.261,-26.503,-26.985,-29.092,-24.364,-28.166,-26.503,-27.807,-26.866,-33.632,-31.909,0.0,0.0,0.0,0,1688144467.4248,2023-06-30 19:01:07,Rest
4,0,-21.295,-18.688,-23.566,-21.044,-22.369,-27.21,-30.768,-23.81,-25.853,-25.853,-20.124,-18.453,-20.124,-18.453,-29.805,-15.29,-29.805,-19.088,-23.719,-22.403,-13.242,-19.088,-18.792,-18.249,-22.403,-18.705,-25.577,-18.792,-24.193,-23.253,-27.451,-27.778,0.0,0.0,0.0,0,1688144467.4326,2023-06-30 19:01:07,Rest
5,0,-23.835,-21.231,-26.616,-23.584,-24.396,-31.282,-31.25,-25.836,-26.339,-26.339,-25.227,-18.434,-25.227,-18.434,-29.263,-17.836,-29.263,-22.143,-24.72,-20.843,-17.328,-22.143,-21.335,-25.403,-20.843,-19.198,-28.113,-21.335,-26.73,-23.742,-31.522,-32.873,0.0,0.0,0.0,0,1688144467.4404,2023-06-30 19:01:07,Rest
6,0,-16.126,-16.599,-17.368,-14.852,-22.322,-20.492,-21.485,-18.637,-18.116,-18.116,-15.98,-12.78,-15.98,-12.78,-18.475,-5.01,-18.475,-6.752,-13.424,-5.966,-7.064,-6.752,-7.993,-15.132,-5.966,-8.933,-14.765,-7.993,-13.383,-13.473,-21.756,-21.058,0.0,0.0,0.0,0,1688144467.4482,2023-06-30 19:01:07,Rest
7,0,1.82,2.373,1.093,-1.004,-5.394,-4.59,-8.143,-4.274,-5.29,-5.29,4.528,-0.472,4.528,-0.472,-2.063,12.925,-2.063,9.649,2.983,8.897,15.997,9.649,10.458,4.864,8.897,9.007,2.156,10.458,4.048,3.447,-1.242,-3.618,0.0,0.0,0.0,0,1688144467.456,2023-06-30 19:01:07,Rest
8,0,5.405,5.956,2.116,-4.077,-2.315,-8.171,-7.11,-3.758,-4.26,-4.26,5.036,1.578,5.036,1.578,-3.085,15.986,-3.085,7.59,3.492,4.79,14.444,7.59,6.349,2.809,4.79,10.023,1.642,6.349,1.995,3.444,-0.729,-5.151,0.0,0.0,0.0,0,1688144467.4638,2023-06-30 19:01:07,Rest
9,0,-0.748,-2.759,-6.083,-8.172,-15.12,-12.774,-12.226,-9.902,-10.404,-10.404,-3.678,-3.035,-3.678,-3.035,-9.23,7.773,-9.23,3.484,-0.097,1.711,5.72,3.484,0.195,-4.878,1.711,1.303,-6.044,0.195,-4.667,-7.831,-11.486,-10.782,0.0,0.0,0.0,0,1688144467.4716,2023-06-30 19:01:07,Rest
10,0,0.789,1.342,-1.466,-0.479,-8.957,-5.077,-8.116,-4.769,-5.783,-5.783,1.448,1.067,1.448,1.067,-2.561,5.204,-2.561,8.091,4.514,10.931,16.473,8.091,9.416,2.299,10.931,2.839,-1.94,9.416,1.485,-5.261,-4.303,-5.648,0.0,0.0,0.0,0,1688144467.4794,2023-06-30 19:01:07,Rest
11,0,5.399,5.44,2.634,2.595,1.81,-2.51,-1.96,0.872,1.395,1.395,6.058,6.701,6.058,6.701,0.516,12.371,0.516,8.595,6.558,8.871,19.018,8.595,10.431,4.858,8.871,6.934,2.673,10.431,6.095,2.429,3.899,-1.031,0.0,0.0,0.0,0,1688144467.4873,2023-06-30 19:01:07,Rest
12,0,-4.34,-4.812,-7.615,-7.141,-11.511,-11.729,-10.667,-7.839,-6.803,-6.803,-5.219,-1.503,-5.219,-1.503,-9.731,11.334,-9.731,-2.172,-2.67,-7.532,1.58,-2.172,-6.485,-5.393,-7.532,-2.806,-8.601,-6.485,-5.182,-8.332,-12.499,-8.203,0.0,0.0,0.0,0,1688144467.4951,2023-06-30 19:01:07,Rest
13,0,-21.242,-15.053,-18.366,-16.355,-24.308,-20.939,-24.489,-19.101,-18.579,-18.579,-18.022,-13.796,-18.022,-13.796,-19.455,-2.509,-19.455,-13.44,-16.499,-16.233,-9.18,-13.44,-16.725,-15.121,-16.233,-13.562,-21.4,-16.725,-17.985,-21.132,-28.88,-22.027,0.0,0.0,0.0,0,1688144467.5029,2023-06-30 19:01:07,Rest
14,0,-16.61,-11.452,-15.274,-13.778,-15.574,-19.893,-21.39,-16.521,-14.974,-14.974,-14.417,-11.221,-14.417,-11.221,-18.923,-5.068,-18.923,-11.89,-19.557,-11.606,-5.072,-11.89,-9.536,-15.618,-11.606,-9.45,-17.28,-9.536,-15.405,-14.963,-21.679,-21.492,0.0,0.0,0.0,0,1688144467.5107,2023-06-30 19:01:07,Rest
15,0,-3.785,-5.293,-8.086,-6.079,-8.386,-11.677,-11.635,-6.77,-8.299,-8.299,-4.669,-4.038,-4.669,-4.038,-13.269,4.671,-13.269,-4.193,-11.34,-6.472,0.056,-4.193,-3.379,-7.918,-6.472,0.293,-8.553,-3.379,-6.168,-8.288,-12.948,-10.2,0.0,0.0,0.0,0,1688144467.5185,2023-06-30 19:01:07,Rest
16,0,-9.417,-5.8,-8.078,-5.048,-11.964,-12.177,-14.697,-7.276,-10.34,-10.34,-7.226,-6.595,-7.226,-6.595,-12.231,3.129,-12.231,-5.214,-8.255,-7.49,0.568,-5.214,-5.937,-3.812,-7.49,1.318,-9.569,-5.937,-7.187,-10.841,-13.96,-11.214,0.0,0.0,0.0,0,1688144467.5263,2023-06-30 19:01:07,Rest
17,0,-10.944,-4.77,-6.021,-5.556,-10.415,-14.727,-14.683,-9.83,-8.793,-8.793,-7.731,-5.564,-7.731,-5.564,-11.707,-1.485,-11.707,-4.184,-7.222,-5.433,2.105,-4.184,-3.369,-5.345,-5.433,1.316,-9.047,-3.369,-8.204,-5.707,-10.36,-12.74,0.0,0.0,0.0,0,1688144467.5341,2023-06-30 19:01:07,Rest
18,0,0.85,-0.154,-1.404,-2.476,-8.355,-9.076,-7.496,-4.697,-5.71,-5.71,-1.576,-0.948,-1.576,-0.948,-7.084,-1.996,-7.084,-0.594,-3.629,0.72,6.201,-0.594,4.831,-1.241,0.72,7.975,-3.403,4.831,-2.56,-1.091,-7.276,-3.506,0.0,0.0,0.0,0,1688144467.5419,2023-06-30 19:01:07,Rest
19,0,-9.397,-5.277,-8.062,-10.158,-15.519,-15.727,-16.197,-10.84,-16.975,-16.975,-10.283,-14.267,-10.283,-14.267,-13.737,-12.752,-13.737,-11.352,-12.334,-5.941,-3.027,-11.352,-1.834,-5.338,-5.941,3.356,-9.035,-1.834,-7.681,-12.36,-16.49,-12.724,0.0,0.0,0.0,0,1688144467.5498,2023-06-30 19:01:07,Rest
20,0,-32.954,-23.715,-25.985,-27.567,-27.287,-34.155,-35.137,-29.273,-31.303,-31.303,-29.741,-30.134,-29.741,-30.134,-34.216,-28.621,-34.216,-29.783,-33.327,-27.452,-26.59,-29.783,-24.886,-26.337,-27.452,-17.652,-28.494,-24.886,-28.166,-30.791,-34.917,-35.765,0.0,0.0,0.0,0,1688144467.5576,2023-06-30 19:01:07,Rest
21,0,-41.63,-42.134,-43.378,-37.273,-39.043,-44.367,-44.835,-40.514,-36.907,-36.907,-41.494,-32.665,-41.494,-32.665,-47.502,-32.691,-47.502,-41.537,-46.101,-46.892,-43.982,-41.537,-44.329,-42.705,-46.892,-35.052,-48.958,-44.329,-45.556,-47.666,-54.862,-45.975,0.0,0.0,0.0,0,1688144467.5654,2023-06-30 19:01:07,Rest
22,0,-41.077,-43.629,-47.433,-36.723,-40.028,-44.835,-46.327,-39.961,-38.92,-38.92,-42.477,-30.071,-42.477,-30.071,-45.917,-25.998,-45.917,-43.032,-42.469,-49.407,-43.425,-43.032,-46.333,-42.662,-49.407,-34.505,-55.056,-46.333,-46.023,-52.23,-58.905,-46.442,0.0,0.0,0.0,0,1688144467.5732,2023-06-30 19:01:07,Rest
23,0,-29.252,-24.118,-27.918,-24.391,-26.156,-33.519,-32.961,-27.114,-27.61,-27.61,-25.016,-19.795,-25.016,-19.795,-32.039,-12.14,-32.039,-26.083,-23.471,-26.816,-23.914,-26.083,-24.77,-28.275,-26.816,-20.638,-33.484,-24.77,-27.021,-32.197,-34.768,-34.612,0.0,0.0,0.0,0,1688144467.581,2023-06-30 19:01:07,Rest
24,0,-8.219,-2.064,-4.323,-8.485,-12.81,-13.506,-11.924,-10.18,-9.139,-9.139,-1.937,-3.381,-1.937,-3.381,-10.49,-0.345,-10.49,-1.466,-2.443,0.363,3.774,-1.466,3.431,-5.193,0.363,-2.687,-3.737,3.431,-3.94,-9.624,-9.118,-12.036,0.0,0.0,0.0,0,1688144467.5888,2023-06-30 19:01:07,Rest
25,0,1.011,2.549,-1.758,-3.866,-10.748,-4.783,-7.301,-5.559,-5.032,-5.032,2.163,2.77,2.163,2.77,1.304,4.266,1.304,6.732,2.683,5.486,14.529,6.732,8.551,5.059,5.486,8.587,2.927,8.551,1.187,-6.54,-5.01,-6.389,0.0,0.0,0.0,0,1688144467.5966,2023-06-30 19:01:07,Rest
26,0,1.523,-0.015,-5.342,-3.35,-8.688,-7.34,-10.367,-5.554,-4.002,-4.002,0.624,4.816,0.624,4.816,-2.284,11.434,-2.284,2.115,0.118,0.358,9.391,2.115,2.395,1.467,0.358,7.041,-2.199,2.395,-2.401,-7.046,-6.03,-10.993,0.0,0.0,0.0,0,1688144467.6044,2023-06-30 19:01:07,Rest
27,0,1.009,1.009,-1.75,-0.785,-7.655,-6.82,-7.795,-0.425,2.15,2.15,3.697,6.861,3.697,6.861,-5.868,15.521,-5.868,0.576,0.118,0.87,7.845,0.576,2.392,1.978,0.87,0.886,-4.759,2.392,-0.861,-5.502,-5.511,-5.859,0.0,0.0,0.0,0,1688144467.6123,2023-06-30 19:01:07,Rest
28,0,-5.14,-0.016,-1.749,-5.395,-10.721,-7.838,-8.812,-0.937,-1.439,-1.439,1.644,0.194,1.644,0.194,-4.837,7.309,-4.837,2.112,-1.931,-1.181,8.35,2.112,2.39,0.952,-1.181,1.398,-7.315,2.39,-1.885,-7.033,-10.117,-6.878,0.0,0.0,0.0,0,1688144467.6201,2023-06-30 19:01:07,Rest
29,0,-0.012,2.033,-1.747,-3.34,-5.587,-6.293,-7.779,-0.936,-1.437,-1.437,4.204,1.731,4.204,1.731,-0.222,9.351,-0.222,7.746,2.682,1.382,11.927,7.746,6.486,0.951,1.382,7.032,0.377,6.486,0.678,-0.879,-9.082,-9.945,0.0,0.0,0.0,0,1688144467.6279,2023-06-30 19:01:07,Rest
30,0,12.284,9.715,5.427,5.372,1.591,-0.139,0.426,6.749,10.347,10.347,11.885,14.024,11.885,14.024,7.463,21.125,7.463,13.885,11.9,14.188,21.137,13.885,14.677,12.22,14.188,11.635,11.135,14.677,10.411,8.344,1.686,-1.738,0.0,0.0,0.0,0,1688144467.6357,2023-06-30 19:01:07,Rest
31,0,5.611,8.681,4.397,2.293,-3.534,-2.7,-1.111,4.181,8.8,8.8,9.311,9.399,9.311,9.399,3.87,12.907,3.87,10.798,6.765,12.637,19.067,10.798,8.514,11.696,12.637,10.087,3.951,8.514,9.889,4.749,0.147,-2.248,0.0,0.0,0.0,0,1688144467.6435,2023-06-30 19:01:07,Rest
32,0,0.483,3.037,-2.267,-0.271,-9.166,-7.308,-7.77,-2.995,-1.967,-1.967,5.716,-0.856,5.716,-0.856,-3.819,2.135,-3.819,5.152,1.123,1.866,9.826,5.152,0.309,2.975,1.866,8.54,-2.713,0.309,2.707,0.134,-6.513,-6.857,3968.0,0.0,0.0,0,1688144467.6513,2023-06-30 19:01:07,Rest
33,0,11.241,7.132,2.346,5.877,-3.009,-0.641,-3.152,2.131,1.621,1.621,9.296,3.756,9.296,3.756,1.308,8.793,1.308,8.22,7.782,6.475,15.452,8.22,8.505,9.632,6.475,13.142,5.999,8.505,6.802,5.257,1.69,0.322,4096.0,0.0,0.0,0,1688144467.6591,2023-06-30 19:01:07,Rest
34,0,12.766,12.761,9.003,2.797,0.068,3.97,0.95,4.69,6.23,6.23,9.799,7.85,9.799,7.85,6.43,10.834,6.43,11.286,9.824,14.153,23.121,11.286,14.132,12.696,14.153,18.252,7.018,14.132,11.919,7.813,7.324,1.347,4096.0,0.0,0.0,0,1688144467.6669,2023-06-30 19:01:07,Rest
35,0,7.63,8.649,3.871,-2.329,-5.055,0.38,-2.637,0.075,4.175,4.175,9.277,7.33,9.277,7.33,0.276,6.724,0.276,7.688,5.715,8.504,16.438,7.688,6.946,5.511,8.504,16.697,-1.186,6.946,8.833,1.658,-1.905,-6.852,4096.0,0.0,0.0,0,1688144467.6748,2023-06-30 19:01:07,Rest
36,0,8.135,5.055,-0.231,1.772,-6.587,-2.182,-3.659,0.587,2.634,2.634,7.731,9.372,7.731,9.372,-1.774,10.304,-1.774,2.558,5.197,1.323,10.786,2.558,2.84,8.58,1.323,12.069,-1.185,2.84,4.726,-5.004,-7.026,-5.308,4096.0,0.0,0.0,0,1688144467.6826,2023-06-30 19:01:07,Rest
37,0,5.565,9.148,2.843,1.258,-4.531,-3.204,-2.119,1.099,3.656,3.656,4.137,7.313,4.137,7.313,1.302,12.855,1.302,1.53,3.655,-0.215,12.312,1.53,2.325,8.059,-0.215,9.496,0.353,2.325,3.696,-6.536,-4.97,-0.692,4096.0,0.0,0.0,0,1688144467.6904,2023-06-30 19:01:07,Rest
38,0,5.56,12.213,4.889,1.769,-1.453,-2.176,-3.141,3.659,9.287,9.287,9.768,8.331,9.768,8.331,1.813,14.891,1.813,7.677,5.701,4.396,15.374,7.677,6.421,5.489,4.396,11.536,1.89,6.421,6.766,-4.48,-3.428,0.846,4096.0,0.0,0.0,0,1688144467.6982,2023-06-30 19:01:07,Rest
39,0,9.653,8.102,2.323,3.817,0.086,-0.125,-2.626,8.266,13.376,13.376,12.832,13.445,12.832,13.445,3.86,18.975,3.86,10.743,11.331,10.539,16.895,10.743,10.001,12.656,10.539,8.962,2.913,10.001,5.735,-5.5,-1.375,-1.717,4096.0,0.0,0.0,0,1688144467.706,2023-06-30 19:01:07,Rest
40,0,0.934,1.946,-4.852,-5.409,-6.574,-4.736,-5.697,-0.964,5.166,5.166,1.549,5.235,1.549,5.235,-0.754,13.833,-0.754,2.023,5.171,3.356,10.218,2.023,1.282,4.959,3.356,-1.293,-5.8,1.282,-4.005,-14.204,-6.497,-11.449,4096.0,0.0,0.0,0,1688144467.7138,2023-06-30 19:01:07,Rest
41,0,-8.801,-4.203,-12.531,-13.088,-15.277,-11.903,-14.913,-12.746,-4.061,-4.061,-5.113,-6.041,-5.113,-6.041,-12.024,5.11,-12.024,-8.225,-9.178,-8.943,-0.038,-8.225,-8.966,-10.928,-8.943,-8.976,-12.966,-8.966,-11.173,-22.899,-15.712,-19.122,4096.0,0.0,0.0,0,1688144467.7216,2023-06-30 19:01:07,Rest
42,0,-12.891,-12.396,-16.617,-12.05,-18.336,-17.014,-20.533,-13.245,-8.667,-8.667,-7.669,-8.596,-7.669,-8.596,-18.672,0.494,-18.672,-13.852,-15.317,-10.983,-8.747,-13.852,-11.006,-11.429,-10.983,-15.115,-12.441,-11.006,-16.285,-29.536,-17.233,-22.689,4096.0,0.0,0.0,0,1688144467.7294,2023-06-30 19:01:07,Rest
43,0,-25.173,-24.167,-23.773,-21.772,-25.49,-26.731,-27.173,-21.941,-18.905,-18.905,-21.494,-17.809,-21.494,-17.809,-29.412,-8.728,-29.412,-23.572,-21.449,-17.632,-18.985,-23.572,-20.216,-20.639,-17.632,-26.37,-24.724,-20.216,-28.052,-42.827,-25.413,-34.962,3968.0,0.0,0.0,0,1688144467.7373,2023-06-30 19:01:07,Rest
44,0,-33.857,-29.266,-31.434,-30.972,-32.124,-31.828,-34.318,-34.215,-24.521,-24.521,-31.206,-25.476,-31.206,-25.476,-38.604,-12.818,-38.604,-30.209,-28.088,-27.348,-25.626,-30.209,-29.93,-33.426,-27.348,-31.467,-37.507,-29.93,-35.196,-53.03,-36.146,-43.636,3968.0,0.0,0.0,0,1688144467.7451,2023-06-30 19:01:07,Rest
45,0,-22.552,-20.527,-24.742,-22.232,-24.407,-23.086,-28.136,-22.91,-15.787,-15.787,-19.904,-15.205,-19.904,-15.205,-26.783,-4.096,-26.783,-18.908,-17.814,-18.612,-14.842,-18.908,-20.166,-19.048,-18.612,-20.165,-25.174,-20.166,-24.402,-41.706,-25.864,-32.834,3968.0,0.0,0.0,0,1688144467.7529,2023-06-30 19:01:07,Rest
46,0,-6.136,-5.65,-8.324,-8.377,-11.063,-11.28,-12.226,-4.956,-5.013,-5.013,-4.003,-2.894,-4.003,-2.894,-8.313,6.154,-8.313,0.066,0.135,-1.174,2.079,0.066,-3.24,-2.123,-1.174,-5.288,-4.144,-3.24,-6.447,-21.685,-7.395,-16.407,3968.0,0.0,0.0,0,1688144467.7607,2023-06-30 19:01:07,Rest
47,0,0.53,4.602,0.394,0.341,-3.367,-5.121,-4.017,-0.853,2.164,2.164,4.198,3.257,4.198,3.257,-2.669,14.345,-2.669,7.239,3.209,3.437,10.274,7.239,3.936,1.977,3.437,3.427,2.008,3.936,2.781,-16.54,-5.338,-5.632,4096.0,0.0,0.0,0,1688144467.7685,2023-06-30 19:01:07,Rest
48,0,-3.057,5.11,-2.168,-0.684,-3.876,-5.116,-7.087,-1.876,2.674,2.674,4.706,4.278,4.706,4.278,-3.179,17.405,-3.179,2.621,-1.917,-2.201,6.165,2.621,-1.704,3.512,-2.201,3.936,-5.167,-1.704,-1.833,-21.134,-9.943,-4.09,4096.0,0.0,0.0,0,1688144467.7763,2023-06-30 19:01:07,Rest
49,0,-7.664,-0.018,-7.801,-9.393,-10.02,-10.746,-12.203,-3.924,-2.964,-2.964,-0.934,-0.849,-0.934,-0.849,-7.274,8.678,-7.274,-2.505,-4.477,-10.908,-1.525,-2.505,-10.923,-5.2,-10.908,-1.704,-13.358,-10.923,-9.003,-21.113,-13.52,-12.283,3968.0,0.0,0.0,0,1688144467.7841,2023-06-30 19:01:07,Rest
50,0,-0.484,1.006,-4.72,-6.822,-7.448,-9.711,-10.141,-3.92,0.113,0.113,0.092,2.225,0.092,2.225,-8.291,8.669,-8.291,-0.453,-0.374,-7.824,2.575,-0.453,-6.302,-5.708,-7.824,1.884,-7.197,-6.302,-2.846,-13.407,-8.895,-10.733,4096.0,0.0,0.0,0,1688144467.7919,2023-06-30 19:01:07,Rest
51,0,8.738,7.153,1.945,-0.155,-0.269,-2.529,-3.984,2.744,6.773,6.773,8.288,11.957,8.288,11.957,0.426,21.981,0.426,6.207,6.799,3.455,12.306,6.207,4.975,7.618,3.455,9.567,4.081,4.975,5.866,-3.148,0.847,-1.501,4096.0,0.0,0.0,0,1688144467.7998,2023-06-30 19:01:07,Rest
52,0,-2.03,-2.588,-7.279,-10.401,-11.539,-9.699,-11.664,-5.456,-4.505,-4.505,1.62,4.26,1.62,4.26,-4.185,19.397,-4.185,0.053,2.181,-5.258,1.535,0.053,-5.788,-1.099,-5.258,-3.763,-9.243,-5.788,-5.411,-11.341,-8.887,-12.77,3968.0,0.0,0.0,0,1688144467.8076,2023-06-30 19:01:07,Rest
53,0,-19.958,-18.467,-24.177,-21.662,-24.848,-23.009,-25.997,-23.381,-16.283,-16.283,-14.775,-12.138,-14.775,-12.138,-23.136,5.033,-23.136,-14.804,-14.215,-23.183,-15.373,-14.804,-22.176,-21.59,-23.183,-22.202,-27.677,-22.176,-22.824,-31.822,-27.834,-30.176,3968.0,0.0,0.0,0,1688144467.8154,2023-06-30 19:01:07,Rest
54,0,-20.451,-15.375,-21.592,-16.517,-20.724,-20.937,-25.971,-20.284,-10.632,-10.632,-16.81,-10.589,-16.81,-10.589,-24.138,3.491,-24.138,-15.814,-17.275,-17.525,-12.283,-15.814,-14.469,-17.47,-17.525,-17.569,-19.453,-14.469,-21.264,-29.229,-22.683,-27.072,3968.0,0.0,0.0,0,1688144467.8232,2023-06-30 19:01:07,Rest
55,0,-12.233,-9.212,-12.861,-14.963,-17.117,-16.818,-19.798,-10.53,-7.547,-7.547,-12.695,-4.43,-12.695,-4.43,-15.404,5.537,-15.404,-8.113,-11.11,-6.749,-7.148,-8.113,-6.77,-10.792,-6.749,-10.891,-8.162,-6.77,-14.583,-14.855,-14.463,-24.483,3968.0,0.0,0.0,0,1688144467.831,2023-06-30 19:01:07,Rest
56,0,-14.27,-16.375,-17.459,-20.071,-21.199,-21.411,-22.339,-18.204,-10.613,-10.613,-13.706,-9.037,-13.706,-9.037,-18.975,1.433,-18.975,-10.667,-12.123,-14.427,-12.264,-10.667,-14.96,-15.392,-14.427,-19.077,-15.327,-14.96,-15.593,-22.525,-21.109,-31.119,3968.0,0.0,0.0,0,1688144467.8388,2023-06-30 19:01:07,Rest
57,0,-15.281,-14.309,-16.417,-13.904,-15.03,-16.267,-19.755,-15.112,-4.455,-4.455,-10.619,-5.442,-10.619,-5.442,-16.907,5.53,-16.907,-10.656,-11.087,-15.437,-6.616,-10.656,-11.872,-10.254,-15.437,-15.472,-16.848,-11.872,-13.528,-25.576,-17.502,-22.379,3968.0,0.0,0.0,0,1688144467.8466,2023-06-30 19:01:07,Rest
58,0,-9.118,-0.975,-7.179,-4.156,-6.818,-8.566,-12.563,0.273,2.209,2.209,-5.998,2.761,-5.998,2.761,-9.205,11.16,-9.205,-3.985,-4.928,-5.687,2.1,-3.985,-4.175,-4.608,-5.687,-4.186,-8.122,-4.175,-8.904,-11.718,-8.263,-11.598,4096.0,0.0,0.0,0,1688144467.8544,2023-06-30 19:01:07,Rest
59,0,-11.67,-7.122,-12.807,-10.299,-12.447,-16.754,-16.649,-6.9,-5.477,-5.477,-10.602,-6.463,-10.602,-6.463,-16.368,-0.122,-16.368,-11.154,-10.558,-10.293,-7.636,-11.154,-11.343,-11.264,-10.293,-13.403,-13.237,-11.343,-14.018,-16.83,-16.964,-20.295,3968.0,0.0,0.0,0,1688144467.8623,2023-06-30 19:01:07,Rest
60,0,-21.392,-21.459,-22.016,-20.535,-20.119,-23.91,-23.293,-22.262,-15.718,-15.718,-15.715,-18.24,-15.715,-18.24,-23.524,-10.88,-23.524,-21.389,-19.257,-20.528,-19.412,-21.389,-16.455,-17.4,-20.528,-22.099,-22.958,-16.455,-21.176,-26.547,-24.119,-27.447,3968.0,0.0,0.0,0,1688144467.8701,2023-06-30 19:01:07,Rest
61,0,-18.297,-14.778,-17.895,-15.392,-17.537,-17.738,-19.171,-17.117,-15.702,-15.702,-14.162,-13.611,-14.162,-13.611,-16.841,-4.722,-16.841,-16.244,-16.676,-16.409,-12.732,-16.244,-12.852,-15.333,-16.409,-11.319,-18.836,-12.852,-18.081,-15.249,-15.898,-21.272,3968.0,0.0,0.0,0,1688144467.8779,2023-06-30 19:01:07,Rest
62,0,-14.18,-7.078,-16.34,-13.327,-16.495,-18.233,-20.689,-15.563,-16.711,-16.711,-15.685,-13.085,-15.685,-13.085,-19.898,-3.18,-19.898,-18.789,-16.659,-14.344,-9.646,-18.789,-17.963,-14.293,-14.344,-10.283,-14.719,-17.963,-16.526,-14.722,-16.394,-21.251,3968.0,0.0,0.0,0,1688144467.8857,2023-06-30 19:01:07,Rest
63,0,-27.998,-21.416,-27.595,-26.634,-26.725,-31.535,-35.525,-31.941,-30.015,-30.015,-26.94,-29.466,-26.94,-29.466,-36.272,-20.595,-36.272,-35.164,-30.987,-30.211,-27.055,-35.164,-27.679,-26.062,-30.211,-27.178,-27.512,-27.679,-29.318,-33.663,-30.21,-32.501,3968.0,0.0,0.0,0,1688144467.8935,2023-06-30 19:01:07,Rest
64,0,-41.29,-36.251,-39.35,-35.829,-35.407,-39.188,-47.272,-41.131,-42.792,-42.792,-39.208,-40.195,-39.208,-40.195,-45.969,-35.944,-45.969,-44.351,-43.252,-43.501,-42.397,-44.351,-35.335,-40.893,-43.501,-36.885,-42.854,-35.335,-43.12,-42.338,-42.988,-43.739,0.0,0.0,0.0,0,1688144467.9013,2023-06-30 19:01:07,Rest
65,0,-40.224,-38.264,-42.897,-36.305,-34.347,-39.149,-46.713,-39.553,-41.725,-41.725,-41.218,-39.13,-41.218,-39.13,-46.436,-33.859,-46.436,-44.307,-43.209,-41.408,-41.33,-44.307,-42.985,-40.34,-41.408,-36.848,-46.397,-42.985,-44.102,-42.808,-48.068,-47.793,0.0,0.0,0.0,0,1688144467.9091,2023-06-30 19:01:07,Rest
66,0,-38.135,-36.177,-39.78,-34.732,-33.288,-38.597,-41.031,-37.976,-35.023,-35.023,-35.03,-35.505,-35.03,-35.505,-43.828,-24.091,-43.828,-41.188,-37.018,-38.293,-37.19,-41.188,-40.893,-34.664,-38.293,-32.201,-43.789,-40.893,-39.447,-44.814,-44.433,-42.623,0.0,0.0,0.0,0,1688144467.9169,2023-06-30 19:01:07,Rest
67,0,-30.925,-27.431,-30.519,-25.476,-29.156,-32.923,-34.842,-29.741,-26.791,-26.791,-26.798,-26.248,-26.798,-26.248,-32.001,-13.821,-32.001,-28.852,-27.247,-31.082,-28.956,-28.852,-26.507,-31.043,-31.082,-22.947,-35.036,-26.507,-31.211,-37.085,-32.094,-33.871,0.0,0.0,0.0,0,1688144467.9248,2023-06-30 19:01:07,Rest
68,0,-17.574,-15.109,-20.755,-16.741,-18.881,-21.62,-27.123,-21.002,-18.567,-18.567,-18.062,-15.975,-18.062,-15.975,-19.161,-4.586,-19.161,-14.478,-14.924,-15.682,-11.509,-14.478,-14.697,-17.692,-15.682,-17.801,-21.681,-14.697,-20.421,-25.265,-20.278,-26.152,0.0,0.0,0.0,0,1688144467.9326,2023-06-30 19:01:07,Rest
69,0,-19.605,-15.093,-19.197,-20.31,-19.374,-20.573,-24.534,-22.518,-20.086,-20.086,-15.482,-14.935,-15.482,-14.935,-20.167,-4.581,-20.167,-13.952,-12.348,-12.592,-8.935,-13.952,-13.146,-12.552,-12.592,-21.369,-18.585,-13.146,-19.888,-23.703,-20.771,-24.589,0.0,0.0,0.0,0,1688144467.9404,2023-06-30 19:01:07,Rest
70,0,-26.246,-21.226,-23.789,-22.852,-23.966,-25.163,-26.559,-24.545,-22.115,-22.115,-19.053,-17.481,-19.053,-17.481,-25.782,-9.187,-25.782,-18.036,-19.508,-18.215,-18.148,-18.036,-17.231,-23.297,-18.215,-21.348,-22.153,-17.231,-23.967,-24.704,-24.336,-29.175,0.0,0.0,0.0,0,1688144467.9482,2023-06-30 19:01:07,Rest
71,0,-10.85,-10.959,-15.568,-12.07,-11.134,-15.404,-17.823,-12.737,-8.261,-8.261,-10.837,-9.779,-10.837,-9.779,-13.461,-0.981,-13.461,-7.26,-12.316,-7.438,-5.835,-7.26,-10.554,-12.003,-7.438,-12.105,-9.323,-10.554,-11.648,-14.433,-13.041,-19.412,0.0,0.0,0.0,0,1688144467.956,2023-06-30 19:01:07,Rest
72,0,4.018,4.934,1.866,-1.3,-0.877,-2.069,-4.485,-0.429,3.018,3.018,4.543,3.038,4.543,3.038,1.922,10.291,1.922,7.092,4.09,5.889,11.59,7.092,4.826,8.501,5.889,-1.334,5.543,4.826,3.221,-2.123,0.805,-2.999,0.0,0.0,0.0,0,1688144467.9638,2023-06-30 19:01:07,Rest
73,0,-4.696,1.343,-0.697,-2.835,-8.048,-7.702,-7.042,-4.527,-4.157,-4.157,2.49,1.498,2.49,1.498,-3.203,4.645,-3.203,0.425,-0.012,-1.289,3.894,0.425,2.772,-2.778,-1.289,-2.358,-2.659,2.772,-2.418,-6.219,-4.319,-7.607,0.0,0.0,0.0,0,1688144467.9716,2023-06-30 19:01:07,Rest
74,0,-11.351,-4.806,-11.967,-7.443,-9.577,-15.379,-13.183,-10.158,-9.276,-9.276,-6.734,-8.237,-6.734,-8.237,-12.421,-5.606,-12.421,-9.821,-9.234,-6.923,-4.307,-9.821,-6.452,-13.022,-6.923,-5.942,-9.829,-6.452,-7.538,-12.361,-10.975,-14.259,0.0,0.0,0.0,0,1688144467.9794,2023-06-30 19:01:07,Rest
75,0,3.005,6.982,0.34,0.761,-0.346,-3.581,-2.923,1.123,3.029,3.029,1.982,0.48,1.982,0.48,-1.138,2.597,-1.138,2.996,3.583,5.379,9.529,2.996,8.411,5.947,5.379,6.36,4.525,8.411,5.789,1.996,0.819,1.637,0.0,0.0,0.0,0,1688144467.9873,2023-06-30 19:01:07,Rest
76,0,12.224,16.196,14.172,9.982,5.802,7.181,7.326,11.88,13.784,13.784,15.3,15.337,15.3,15.337,10.646,16.939,10.646,16.313,15.875,14.595,19.254,16.313,22.235,15.675,14.595,19.161,13.742,22.235,16.03,14.802,11.064,11.881,0.0,0.0,0.0,0,1688144467.9951,2023-06-30 19:01:07,Rest
77,0,4.014,9.008,4.424,2.8,4.772,0.514,0.146,4.184,8.135,8.135,9.137,9.174,9.137,9.174,2.439,14.873,2.439,8.1,7.15,8.433,13.087,8.1,11.454,6.437,8.433,10.433,2.458,11.454,8.329,5.053,5.418,3.16,0.0,0.0,0.0,0,1688144468.0029,2023-06-30 19:01:08,Rest
78,0,-5.211,0.802,-6.851,-6.425,-3.942,-8.708,-10.1,-5.554,-3.656,-3.656,-4.705,-5.18,-4.705,-5.18,-7.81,0.513,-7.81,-3.691,-4.64,0.228,4.364,-3.691,2.221,-1.766,0.228,-1.873,-6.766,2.221,-1.925,-6.735,-6.883,-5.552,0.0,0.0,0.0,0,1688144468.0107,2023-06-30 19:01:08,Rest
79,0,-5.718,-1.248,-4.795,-5.394,-10.086,-7.162,-10.09,-4.524,-6.214,-6.214,-3.676,-5.175,-3.676,-5.175,-7.29,-3.074,-7.29,-2.151,-4.636,-0.797,2.311,-2.151,5.805,-4.326,-0.797,0.69,-7.272,5.805,-3.973,-4.679,-13.024,-9.133,0.0,0.0,0.0,0,1688144468.0185,2023-06-30 19:01:08,Rest
80,0,3.509,2.339,0.845,-0.778,0.17,0.017,-0.346,0.091,4.038,4.038,7.087,4.052,7.087,4.052,0.914,10.762,0.914,9.122,9.201,6.888,12.042,9.122,10.922,6.437,6.888,10.424,0.42,10.922,3.203,4.547,-3.789,-3.489,0.0,0.0,0.0,0,1688144468.0263,2023-06-30 19:01:08,Rest
81,0,17.85,14.632,9.041,7.42,9.904,6.677,9.388,8.8,13.768,13.768,17.838,13.782,17.838,13.782,13.721,26.633,13.721,23.458,24.049,18.152,28.424,23.458,21.67,23.337,18.152,22.196,16.814,21.67,16.52,14.789,9.022,11.884,0.0,0.0,0.0,0,1688144468.0341,2023-06-30 19:01:08,Rest
82,0,19.881,18.204,12.618,10.487,5.795,8.207,5.793,12.378,13.754,13.754,20.894,14.792,20.894,14.792,16.781,27.631,16.781,23.947,20.951,19.671,27.371,23.947,27.284,19.727,19.671,23.199,18.334,27.284,19.065,15.799,6.964,12.385,0.0,0.0,0.0,0,1688144468.0419,2023-06-30 19:01:08,Rest
83,0,3.468,2.816,0.31,-2.844,-3.432,-1.535,-9.07,-1.467,1.445,1.445,7.041,0.433,7.041,0.433,-0.142,13.258,-0.142,4.455,2.487,6.331,5.315,4.455,9.838,1.264,6.331,2.171,-4.226,9.838,2.652,-1.123,-6.875,-8.632,0.0,0.0,0.0,0,1688144468.0498,2023-06-30 19:01:08,Rest
84,0,-14.979,-15.117,-18.646,-20.26,-15.724,-19.464,-20.332,-20.421,-15.462,-15.462,-15.508,-17.498,-15.508,-17.498,-18.585,-5.198,-18.585,-15.529,-13.909,-11.606,-12.622,-15.529,-13.226,-13.081,-11.606,-15.762,-20.616,-13.226,-17.33,-18.541,-22.75,-26.042,0.0,0.0,0.0,0,1688144468.0576,2023-06-30 19:01:08,Rest
85,0,-23.161,-22.787,-27.336,-25.362,-24.417,-29.178,-25.947,-26.548,-23.644,-23.644,-24.714,-23.628,-24.714,-23.628,-24.714,-15.951,-24.714,-24.223,-22.605,-23.377,-17.732,-24.223,-18.848,-22.29,-23.377,-17.283,-20.595,-18.848,-24.998,-23.133,-30.412,-31.652,0.0,0.0,0.0,0,1688144468.0654,2023-06-30 19:01:08,Rest
86,0,-24.674,-23.276,-26.284,-25.337,-21.319,-25.563,-30.532,-24.985,-22.083,-22.083,-22.64,-22.068,-22.64,-22.068,-28.788,-18.497,-28.788,-27.785,-25.656,-26.428,-22.325,-27.785,-19.341,-24.829,-26.428,-18.291,-26.21,-19.341,-24.973,-26.183,-28.332,-31.62,0.0,0.0,0.0,0,1688144468.0732,2023-06-30 19:01:08,Rest
87,0,-26.699,-22.228,-26.77,-25.824,-20.273,-27.587,-29.989,-24.96,-20.524,-20.524,-26.716,-23.583,-26.716,-23.583,-33.37,-20.015,-33.37,-31.343,-29.216,-27.938,-28.963,-31.343,-26.494,-25.829,-27.938,-22.883,-34.893,-26.494,-26.485,-30.768,-30.865,-31.076,0.0,0.0,0.0,0,1688144468.081,2023-06-30 19:01:08,Rest
88,0,-26.16,-20.157,-28.28,-23.237,-22.302,-31.145,-26.885,-23.398,-18.967,-18.967,-28.226,-24.584,-28.226,-24.584,-29.238,-16.921,-29.238,-29.775,-29.699,-27.911,-26.885,-29.775,-24.419,-26.315,-27.911,-19.786,-29.735,-24.419,-26.458,-26.639,-34.933,-30.533,0.0,0.0,0.0,0,1688144468.0888,2023-06-30 19:01:08,Rest
89,0,-19.474,-16.038,-21.592,-19.115,-17.669,-21.38,-25.321,-19.276,-12.8,-12.8,-17.439,-18.924,-17.439,-18.924,-22.548,-8.708,-22.548,-20.524,-19.424,-19.173,-16.612,-20.524,-11.587,-18.092,-19.173,-13.107,-20.484,-11.587,-18.747,-15.854,-25.164,-23.33,0.0,0.0,0.0,0,1688144468.0966,2023-06-30 19:01:08,Rest
90,0,-18.942,-16.535,-20.034,-21.657,-18.676,-18.285,-25.808,-21.818,-15.349,-15.349,-15.373,-19.417,-15.373,-19.417,-26.112,-9.724,-26.112,-20.503,-18.38,-17.105,-16.595,-20.503,-15.673,-15.513,-17.105,-15.655,-23.025,-15.673,-18.728,-17.887,-24.114,-22.282,0.0,0.0,0.0,0,1688144468.1044,2023-06-30 19:01:08,Rest
91,0,-27.632,-25.74,-31.797,-30.345,-28.391,-31.074,-31.93,-29.993,-27.629,-27.629,-29.189,-30.156,-29.189,-30.156,-34.283,-21.497,-34.283,-34.315,-33.73,-32.969,-28.874,-34.315,-30.002,-29.842,-32.969,-25.373,-33.248,-30.002,-29.98,-28.628,-38.947,-32.506,0.0,0.0,0.0,0,1688144468.1123,2023-06-30 19:01:08,Rest
92,0,-28.629,-26.739,-32.277,-29.29,-27.338,-32.58,-33.435,-29.963,-28.113,-28.113,-31.21,-28.589,-31.21,-28.589,-32.199,-22.5,-32.199,-33.256,-31.647,-34.473,-28.845,-33.256,-26.899,-31.861,-34.473,-25.348,-32.19,-26.899,-29.95,-25.013,-37.884,-30.936,0.0,0.0,0.0,0,1688144468.1201,2023-06-30 19:01:08,Rest
93,0,-19.892,-15.953,-18.925,-19.527,-19.626,-21.789,-23.668,-22.249,-17.327,-17.327,-16.834,-17.802,-16.834,-17.802,-23.458,-9.158,-23.458,-16.317,-14.197,-15.996,-13.447,-16.317,-15.089,-15.948,-15.996,-15.076,-20.375,-15.089,-18.65,-13.205,-24.526,-19.635,0.0,0.0,0.0,0,1688144468.1279,2023-06-30 19:01:08,Rest
94,0,-14.236,-10.302,-16.344,-17.458,-16.533,-18.694,-18.521,-18.128,-13.723,-13.723,-11.181,-16.247,-11.181,-16.247,-17.799,-1.464,-17.799,-11.69,-12.134,-12.394,-6.773,-11.69,-11.487,-9.784,-12.394,-10.451,-16.256,-11.487,-15.045,-9.093,-19.89,-21.152,0.0,0.0,0.0,0,1688144468.1357,2023-06-30 19:01:08,Rest
95,0,-6.025,-5.169,-12.23,-13.854,-9.856,-12.527,-14.916,-10.938,-9.099,-9.099,-8.609,-10.083,-8.609,-10.083,-9.072,1.612,-9.072,-6.555,-7.511,-9.82,-1.131,-6.555,-3.279,-6.7,-9.82,-4.292,-11.116,-3.279,-8.37,-1.912,-12.698,-16.52,0.0,0.0,0.0,0,1688144468.1435,2023-06-30 19:01:08,Rest
96,0,5.764,6.107,3.664,-0.008,0.912,-2.269,-0.045,3.93,3.206,3.206,1.646,5.296,1.646,5.296,1.695,12.368,1.695,8.821,9.403,7.609,13.215,8.821,9.532,8.163,7.609,11.081,3.752,9.532,5.983,11.41,-0.39,1.427,3968.0,0.0,0.0,0,1688144468.1513,2023-06-30 19:01:08,Rest
97,0,2.172,6.614,3.661,1.529,1.423,-5.34,2.005,4.951,2.178,2.178,3.181,2.217,3.181,2.217,-0.355,14.918,-0.355,6.25,5.807,4.527,12.689,6.25,6.961,8.667,4.527,9.533,5.285,6.961,3.416,10.374,-3.464,1.426,4096.0,0.0,0.0,0,1688144468.1591,2023-06-30 19:01:08,Rest
98,0,-9.613,-4.152,-9.663,-9.231,-6.775,-12.507,-11.317,-7.862,-6.534,-6.534,-5.019,-9.056,-5.019,-9.056,-8.04,5.169,-8.04,-6.563,-5.469,-9.31,1.406,-6.563,-0.731,-6.71,-9.31,-6.87,-4.967,-0.731,-9.395,0.118,-11.657,-12.92,3968.0,0.0,0.0,0,1688144468.1669,2023-06-30 19:01:08,Rest
99,0,-0.382,-0.049,-4.018,-3.074,-3.694,-5.322,-5.158,-5.292,5.256,5.256,-1.428,2.224,-1.428,2.224,-2.909,7.725,-2.909,3.177,4.782,2.995,9.089,3.177,7.979,-1.068,2.995,-1.74,3.235,7.979,-0.677,6.265,-3.448,-9.321,3968.0,0.0,0.0,0,1688144468.1748,2023-06-30 19:01:08,Rest
100,0,14.475,12.759,9.306,7.687,6.556,5.441,7.655,9.058,17.034,17.034,7.283,15.029,7.283,15.029,6.316,17.964,6.316,13.42,13.487,14.775,21.375,13.42,17.193,15.327,14.775,12.606,15.527,17.193,13.156,21.628,7.826,4.521,4096.0,0.0,0.0,0,1688144468.1826,2023-06-30 19:01:08,Rest
101,0,1.653,4.549,0.075,-3.079,-0.623,-0.712,-3.624,3.925,3.697,3.697,-0.921,-0.867,-0.921,-0.867,-1.887,6.163,-1.887,-3.5,-2.408,-1.121,4.96,-3.5,3.343,3.016,-1.121,1.323,1.167,3.343,0.335,12.897,-2.94,-1.119,4096.0,0.0,0.0,0,1688144468.1904,2023-06-30 19:01:08,Rest
102,0,-20.378,-14.923,-19.905,-18.957,-18.041,-20.179,-21.551,-16.059,-13.213,-13.213,-18.851,-20.334,-18.851,-20.334,-20.841,-16.385,-20.841,-22.964,-22.386,-17.002,-18.611,-22.964,-17.665,-19.529,-17.002,-19.683,-20.863,-17.665,-21.182,-11.706,-24.454,-22.123,3968.0,0.0,0.0,0,1688144468.1982,2023-06-30 19:01:08,Rest
103,0,-27.017,-25.154,-28.082,-26.623,-23.146,-31.942,-28.702,-26.801,-19.348,-19.348,-30.103,-25.949,-30.103,-25.949,-31.066,-22.004,-31.066,-28.576,-28.511,-23.645,-25.765,-28.576,-25.332,-25.657,-23.645,-27.348,-30.576,-25.332,-28.845,-21.941,-34.676,-33.884,3968.0,0.0,0.0,0,1688144468.206,2023-06-30 19:01:08,Rest
104,0,-32.626,-31.277,-32.152,-34.281,-25.685,-33.447,-36.358,-31.385,-28.038,-28.038,-36.221,-32.583,-36.221,-32.583,-38.72,-19.933,-38.72,-35.72,-32.581,-35.916,-31.887,-35.72,-30.429,-31.779,-35.916,-33.469,-38.743,-30.429,-35.476,-24.48,-39.252,-36.411,3968.0,0.0,0.0,0,1688144468.2138,2023-06-30 19:01:08,Rest
105,0,-38.228,-35.856,-38.78,-37.321,-32.831,-34.438,-39.908,-35.452,-33.133,-33.133,-37.721,-36.137,-37.721,-36.137,-43.292,-21.45,-43.292,-40.807,-37.159,-42.541,-39.027,-40.807,-37.059,-38.919,-42.541,-38.046,-42.802,-37.059,-41.589,-30.604,-44.848,-39.961,3968.0,0.0,0.0,0,1688144468.2216,2023-06-30 19:01:08,Rest
106,0,-30.506,-28.136,-33.618,-30.111,-29.212,-31.329,-33.208,-31.318,-27.464,-27.464,-29.999,-25.855,-29.999,-25.855,-34.027,-17.33,-34.027,-28.471,-30.975,-31.227,-29.254,-28.471,-28.825,-30.171,-31.227,-28.274,-32.513,-28.825,-31.813,-24.425,-37.631,-35.823,3968.0,0.0,0.0,0,1688144468.2294,2023-06-30 19:01:08,Rest
107,0,-21.254,-18.374,-21.802,-24.446,-20.474,-24.638,-25.49,-25.139,-22.313,-22.313,-20.747,-22.243,-20.747,-22.243,-23.747,-12.19,-23.747,-15.123,-19.673,-18.901,-14.88,-15.123,-14.964,-20.407,-18.901,-19.536,-20.185,-14.964,-21.023,-10.056,-23.249,-26.565,3968.0,0.0,0.0,0,1688144468.2373,2023-06-30 19:01:08,Rest
108,0,-21.232,-17.331,-19.731,-21.86,-20.966,-22.564,-21.366,-24.602,-19.73,-19.73,-20.214,-24.27,-20.214,-24.27,-23.723,-11.153,-23.723,-17.669,-17.604,-16.832,-15.378,-17.669,-14.436,-19.362,-16.832,-18.492,-17.091,-14.436,-21.514,-7.997,-19.64,-23.977,3968.0,0.0,0.0,0,1688144468.2451,2023-06-30 19:01:08,Rest
109,0,-17.625,-14.752,-16.637,-15.69,-17.359,-18.955,-17.246,-17.405,-13.05,-13.05,-20.706,-15.536,-20.706,-15.536,-21.138,-4.994,-21.138,-16.627,-15.025,-13.229,-13.826,-16.627,-13.91,-15.244,-13.229,-11.814,-16.05,-13.91,-17.907,-7.477,-20.132,-19.855,3968.0,0.0,0.0,0,1688144468.2529,2023-06-30 19:01:08,Rest
110,0,-5.312,-3.979,-5.862,-6.453,-5.558,-10.74,-10.056,-4.067,-2.791,-2.791,-7.878,-4.25,-7.878,-4.25,-9.846,4.233,-9.846,-2.778,-3.227,-3.482,-0.492,-2.778,-2.625,-4.983,-3.482,-1.044,-9.374,-2.625,-6.106,3.289,-10.378,-8.052,3968.0,0.0,0.0,0,1688144468.2607,2023-06-30 19:01:08,Rest
111,0,3.915,5.247,0.804,0.214,1.62,-4.581,-0.313,3.621,7.971,7.971,5.45,1.39,5.45,1.39,0.922,9.864,0.922,7.471,4.973,2.156,9.755,7.471,5.575,3.731,2.156,4.593,-0.655,5.575,2.097,14.044,-1.659,-1.896,4096.0,0.0,0.0,0,1688144468.2685,2023-06-30 19:01:08,Rest
112,0,2.886,6.778,2.852,0.213,1.106,-2.015,2.762,3.105,10.012,10.012,1.858,4.462,1.858,4.462,3.483,12.415,3.483,3.877,3.944,3.691,10.257,3.877,6.081,6.801,3.691,5.101,3.444,6.081,3.632,14.03,-2.682,-0.357,4096.0,0.0,0.0,0,1688144468.2763,2023-06-30 19:01:08,Rest
113,0,-1.215,4.722,5.411,-0.299,-0.432,-0.988,0.197,3.615,10.002,10.002,-2.242,7.019,-2.242,7.019,-0.107,14.452,-0.107,0.8,5.989,6.761,9.223,0.8,6.075,4.745,6.761,5.608,4.978,6.075,1.067,11.455,-1.142,2.717,4096.0,0.0,0.0,0,1688144468.2841,2023-06-30 19:01:08,Rest
114,0,6.983,12.915,10.016,10.972,8.79,5.16,7.369,15.394,22.799,22.799,9.543,18.795,9.543,18.795,5.529,24.172,5.529,12.07,16.229,13.927,18.435,12.07,12.729,8.839,13.927,13.799,11.12,12.729,7.726,21.177,10.642,8.862,4096.0,0.0,0.0,0,1688144468.2919,2023-06-30 19:01:08,Rest
115,0,23.882,26.734,19.74,24.793,24.663,17.45,20.682,30.236,35.072,35.072,20.804,32.609,20.804,32.609,19.868,37.468,19.868,26.402,25.435,22.11,35.323,26.402,24.499,23.687,22.11,25.056,22.38,24.499,25.137,35.501,21.39,22.173,4096.0,0.0,0.0,0,1688144468.2998,2023-06-30 19:01:08,Rest
116,0,26.932,28.244,25.356,24.256,24.126,21.532,24.248,32.255,31.963,31.963,18.222,28.478,18.222,28.478,22.41,37.43,22.41,26.376,25.922,25.162,38.361,26.376,27.549,28.274,25.162,25.031,26.456,27.549,27.161,35.977,20.856,27.274,4096.0,0.0,0.0,0,1688144468.3076,2023-06-30 19:01:08,Rest
117,0,18.196,24.63,21.744,17.572,15.392,13.825,20.637,23.513,25.271,25.271,15.642,20.252,15.642,20.252,17.776,28.683,17.776,20.202,21.797,21.55,27.564,20.202,19.837,21.074,21.55,20.395,21.819,19.837,18.937,29.281,16.225,19.05,4096.0,0.0,0.0,0,1688144468.3154,2023-06-30 19:01:08,Rest
118,0,13.055,25.63,17.112,14.993,15.889,9.201,16.006,18.879,21.147,21.147,16.139,20.745,16.139,20.745,17.246,23.532,17.246,20.182,18.189,14.869,24.463,20.182,19.304,19.003,14.869,21.399,19.235,19.304,17.893,24.129,13.647,16.469,4096.0,0.0,0.0,0,1688144468.3232,2023-06-30 19:01:08,Rest
119,0,17.14,24.579,18.632,18.564,18.435,13.29,15.99,22.446,21.126,21.126,17.148,21.236,17.148,21.236,16.205,22.483,16.205,20.161,20.22,16.903,31.611,20.161,24.921,21.546,16.903,21.89,21.265,24.921,19.412,25.642,15.683,22.6,4096.0,0.0,0.0,0,1688144468.331,2023-06-30 19:01:08,Rest
120,0,33.517,33.776,32.445,29.816,26.613,24.548,28.781,35.231,36.987,36.987,27.889,35.047,27.889,35.047,26.947,37.318,26.947,30.9,34.032,36.866,46.948,30.9,35.142,31.77,36.866,31.602,32.515,35.142,30.151,42.01,31.036,33.336,4096.0,0.0,0.0,0,1688144468.3388,2023-06-30 19:01:08,Rest
121,0,48.853,50.649,48.807,40.545,40.419,36.306,43.097,48.516,52.831,52.831,45.279,55.504,45.279,55.504,46.9,60.847,46.9,50.849,49.88,49.637,61.246,50.849,48.427,48.132,49.637,45.915,49.901,48.427,50.101,53.751,45.35,47.135,4096.0,0.0,0.0,0,1688144468.3466,2023-06-30 19:01:08,Rest
122,0,40.095,45.475,43.123,35.894,33.719,33.708,37.931,43.857,44.582,44.582,42.16,49.301,42.16,49.301,40.705,58.224,40.705,47.212,45.731,38.317,53.5,47.212,44.28,45.01,38.317,40.234,47.802,44.28,43.391,40.377,35.57,43.502,4096.0,0.0,0.0,0,1688144468.3544,2023-06-30 19:01:08,Rest
123,0,23.661,28.523,26.686,25.099,19.34,20.867,24.061,32.03,32.754,32.754,24.187,31.321,24.187,31.321,22.734,40.748,22.734,25.648,29.804,25.983,34.491,25.648,24.768,26.522,25.983,24.312,25.212,24.768,22.855,28.554,18.629,25.528,4096.0,0.0,0.0,0,1688144468.3623,2023-06-30 19:01:08,Rest
124,0,21.075,27.47,24.097,22.0,21.882,17.26,20.963,29.436,32.721,32.721,18.015,31.29,18.015,31.29,22.711,38.145,22.711,21.011,23.627,24.42,31.895,21.011,19.108,21.885,24.42,23.263,14.941,19.108,22.32,30.062,17.585,21.916,4096.0,0.0,0.0,0,1688144468.3701,2023-06-30 19:01:08,Rest
125,0,19.005,27.443,22.024,18.392,20.836,17.755,21.454,25.308,29.615,29.615,19.022,30.234,19.022,30.234,19.614,36.57,19.614,23.552,24.115,21.322,30.839,23.552,22.675,21.863,21.322,23.752,19.025,22.675,21.786,25.934,17.568,22.919,4096.0,0.0,0.0,0,1688144468.3779,2023-06-30 19:01:08,Rest
126,0,15.4,21.268,17.904,15.3,14.667,14.151,18.359,22.209,24.462,24.462,15.929,24.056,15.929,24.056,12.935,29.874,12.935,19.43,24.091,21.3,25.685,19.43,20.09,16.718,21.3,20.655,22.592,20.09,16.128,20.785,13.964,16.748,4096.0,0.0,0.0,0,1688144468.3857,2023-06-30 19:01:08,Rest
127,0,20.508,23.808,24.546,21.432,21.825,15.161,19.365,29.872,27.511,27.511,17.45,28.13,17.45,28.13,20.607,31.893,20.607,18.898,23.043,24.865,32.319,18.898,21.095,19.775,24.865,21.659,24.618,21.095,21.235,25.375,18.049,21.342,4096.0,0.0,0.0,0,1688144468.3935,2023-06-30 19:01:08,Rest
0,0,17.926,24.296,24.521,21.923,22.316,17.708,18.834,27.793,25.947,25.947,16.92,27.078,16.92,27.078,18.537,31.349,18.537,16.318,19.946,21.767,30.75,16.318,20.562,18.731,21.767,19.076,19.471,20.562,18.14,22.788,20.08,23.882,0.0,0.0,0.0,0,1688144468.4013,2023-06-30 19:01:08,Rest
1,0,8.686,16.075,12.713,11.655,12.047,11.542,12.155,15.469,19.261,19.261,8.707,18.854,8.707,18.854,5.198,24.145,5.198,10.154,16.852,16.622,17.911,10.154,14.393,10.003,16.622,11.884,13.303,14.393,6.851,14.056,13.912,11.563,0.0,0.0,0.0,0,1688144468.4091,2023-06-30 19:01:08,Rest
2,0,8.677,11.448,11.164,7.033,12.035,5.895,8.556,14.429,16.68,16.68,6.136,16.786,6.136,16.786,6.73,19.51,6.73,9.631,13.761,13.531,17.894,9.631,12.842,10.505,13.531,9.823,15.852,12.842,8.894,14.042,10.312,5.916,0.0,0.0,0.0,0,1688144468.4169,2023-06-30 19:01:08,Rest
3,0,4.57,5.802,7.054,4.976,7.412,2.303,5.474,9.804,8.979,8.979,3.569,7.547,3.569,7.547,3.649,10.782,3.649,3.986,2.477,4.296,11.728,3.986,4.632,5.884,4.296,5.202,7.639,4.632,5.299,9.929,3.129,4.373,0.0,0.0,0.0,0,1688144468.4248,2023-06-30 19:01:08,Rest
4,0,-12.853,-6.5,-9.859,-6.812,-6.94,-11.019,-5.802,-5.575,-3.838,-3.838,-12.316,-5.268,-12.316,-5.268,-13.773,-3.061,-13.773,-10.875,-9.309,-5.442,-9.801,-10.875,-10.742,-12.565,-5.442,-6.073,-14.398,-10.742,-12.637,-5.45,-10.194,-7.927,0.0,0.0,0.0,0,1688144468.4326,2023-06-30 19:01:08,Rest
5,0,-16.938,-10.079,-11.898,-10.903,-7.445,-16.643,-12.456,-6.594,-6.396,-6.396,-21.013,-4.238,-21.013,-4.238,-17.345,-4.083,-17.345,-14.45,-10.837,-10.047,-10.816,-14.45,-9.706,-16.138,-10.047,-11.191,-18.482,-9.706,-15.699,-10.568,-14.794,-12.529,0.0,0.0,0.0,0,1688144468.4404,2023-06-30 19:01:08,Rest
6,0,-3.601,-1.872,0.409,-1.671,-0.265,-4.844,-2.71,3.659,-0.242,-0.242,-8.185,2.938,-8.185,2.938,-7.594,9.241,-7.594,-3.165,-3.141,-6.451,6.101,-3.165,-0.475,-3.827,-6.451,-1.958,-3.607,-0.475,-5.437,0.202,-5.558,-2.783,0.0,0.0,0.0,0,1688144468.4482,2023-06-30 19:01:08,Rest
7,0,11.259,10.937,9.63,9.602,7.419,7.457,11.125,11.852,11.542,11.542,10.267,13.182,10.267,13.182,5.734,25.113,5.734,12.207,13.256,8.925,16.854,12.207,8.235,8.472,8.925,14.95,9.205,8.235,7.376,15.058,8.28,9.515,0.0,0.0,0.0,0,1688144468.456,2023-06-30 19:01:08,Rest
8,0,26.105,28.345,23.965,21.887,21.757,17.695,21.872,25.673,28.436,28.436,23.576,33.148,23.576,33.148,25.196,39.945,25.196,28.077,31.173,25.822,32.718,28.077,25.645,24.345,25.822,26.206,22.003,25.645,24.787,28.875,20.567,23.338,0.0,0.0,0.0,0,1688144468.4638,2023-06-30 19:01:08,Rest
9,0,35.3,36.513,34.187,30.575,28.907,27.411,30.047,37.942,34.556,34.556,31.237,40.8,31.237,40.8,32.343,47.59,32.343,33.172,35.753,29.895,44.981,33.172,36.89,35.079,29.895,28.229,32.74,36.89,34.497,35.507,28.743,32.536,0.0,0.0,0.0,0,1688144468.4716,2023-06-30 19:01:08,Rest
10,0,30.654,31.866,29.03,25.933,25.292,25.335,28.48,34.318,28.373,28.373,29.157,35.636,29.157,35.636,25.65,46.518,25.65,28.016,30.594,28.84,38.788,28.016,31.73,31.458,28.84,27.689,32.195,31.73,28.827,31.885,28.715,28.917,0.0,0.0,0.0,0,1688144468.4794,2023-06-30 19:01:08,Rest
11,0,26.013,29.273,25.927,19.76,24.755,19.162,21.792,27.112,25.784,25.784,22.468,33.039,22.468,33.039,24.088,40.836,24.088,25.938,29.027,28.299,34.651,25.938,29.649,26.304,28.299,26.124,29.601,29.649,25.724,27.755,21.001,20.692,0.0,0.0,0.0,0,1688144468.4873,2023-06-30 19:01:08,Rest
12,0,24.45,26.17,23.34,18.203,21.144,17.093,19.721,23.498,23.196,23.196,19.371,26.858,19.371,26.858,22.527,33.11,22.527,21.814,23.362,22.635,31.543,21.814,26.546,23.204,22.635,19.95,25.985,26.546,23.649,23.116,13.808,14.523,0.0,0.0,0.0,0,1688144468.4951,2023-06-30 19:01:08,Rest
13,0,17.253,17.434,13.07,11.525,12.926,9.904,13.041,18.352,16.513,16.513,15.254,18.122,15.254,18.122,11.746,28.466,11.746,12.058,14.117,14.416,17.679,12.058,14.224,15.496,14.416,13.27,10.59,14.224,13.892,12.847,8.159,8.361,0.0,0.0,0.0,0,1688144468.5029,2023-06-30 19:01:08,Rest
14,0,12.113,14.855,9.471,9.976,13.937,4.259,6.88,16.796,17.521,17.521,11.14,19.641,11.14,19.641,9.685,28.95,9.685,9.997,13.591,11.327,13.05,9.997,10.111,11.382,11.327,11.208,2.382,10.111,8.755,5.662,3.028,7.84,0.0,0.0,0.0,0,1688144468.5107,2023-06-30 19:01:08,Rest
15,0,19.785,22.525,18.171,19.7,21.608,15.013,17.632,26.001,25.7,25.7,14.715,24.744,14.715,24.744,19.409,32.507,19.409,17.672,20.75,17.976,26.357,17.672,18.81,18.543,17.976,16.832,16.725,18.81,17.967,15.39,10.709,13.98,0.0,0.0,0.0,0,1688144468.5185,2023-06-30 19:01:08,Rest
16,0,33.085,32.749,29.423,29.414,30.808,27.293,31.447,39.295,34.896,34.896,25.971,32.916,25.971,32.916,29.123,38.11,29.123,28.925,32.0,32.815,40.676,28.925,32.624,31.844,32.815,29.623,33.102,32.624,33.319,31.768,30.678,24.725,0.0,0.0,0.0,0,1688144468.5263,2023-06-30 19:01:08,Rest
17,0,39.2,41.425,39.128,36.045,39.486,31.364,35.514,43.354,38.448,38.448,34.654,41.593,34.654,41.593,36.267,42.683,36.267,38.117,40.677,43.028,47.807,38.117,41.813,41.546,43.028,39.327,38.192,41.813,43.019,33.786,40.382,36.483,0.0,0.0,0.0,0,1688144468.5341,2023-06-30 19:01:08,Rest
18,0,31.989,38.822,37.552,33.447,31.25,27.747,30.867,34.089,27.651,27.651,30.521,34.379,30.521,34.379,33.156,34.443,33.156,31.419,31.927,34.788,40.587,31.419,35.623,35.869,34.788,35.189,34.567,35.623,36.316,21.969,30.607,35.422,0.0,0.0,0.0,0,1688144468.5419,2023-06-30 19:01:08,Rest
19,0,20.173,25.976,24.194,19.069,15.849,16.961,20.078,22.785,15.84,15.84,19.22,18.975,19.22,18.975,17.242,20.064,17.242,16.019,16.526,17.847,27.227,16.019,22.267,23.026,17.847,24.908,23.774,22.267,21.423,11.701,19.818,20.017,0.0,0.0,0.0,0,1688144468.5498,2023-06-30 19:01:08,Rest
20,0,18.104,21.851,19.047,15.976,18.395,13.358,16.472,22.762,18.898,18.898,16.639,17.932,16.639,17.932,13.126,17.995,13.126,14.978,17.534,15.268,24.638,14.978,21.221,18.904,15.268,23.858,15.554,21.221,19.352,9.128,16.212,15.386,0.0,0.0,0.0,0,1688144468.5576,2023-06-30 19:01:08,Rest
21,0,17.574,23.366,19.028,20.059,22.475,15.394,18.505,22.227,17.342,17.342,16.11,19.451,16.11,19.451,16.699,22.075,16.699,15.475,19.053,16.79,22.052,15.475,19.662,17.348,16.79,22.81,15.026,19.662,17.796,3.483,9.024,16.908,0.0,0.0,0.0,0,1688144468.5654,2023-06-30 19:01:08,Rest
22,0,-0.375,5.412,1.078,2.62,4.01,-2.04,2.604,7.86,1.443,1.443,-2.349,9.697,-2.349,9.697,-1.248,13.344,-1.248,-6.057,-2.995,-3.719,-1.024,-6.057,-2.899,-0.6,-3.719,4.856,-1.895,-2.899,-1.177,-13.939,-11.478,-3.601,0.0,0.0,0.0,0,1688144468.5732,2023-06-30 19:01:08,Rest
23,0,-21.379,-21.233,-24.026,-18.387,-13.413,-25.604,-18.915,-9.566,-9.829,-9.829,-24.888,-1.071,-24.888,-1.071,-24.301,1.035,-24.301,-29.617,-27.583,-32.917,-27.151,-29.617,-29.536,-24.678,-32.917,-18.202,-34.169,-29.536,-22.181,-36.467,-37.081,-29.213,0.0,16777216.0,0.0,0,1688144468.581,2023-06-30 19:01:08,Rest
24,0,-18.284,-19.675,-24.002,-13.245,-8.789,-19.943,-15.31,-8.02,-5.721,-5.721,-21.277,-0.557,-21.277,-0.557,-19.666,5.133,-19.666,-26.002,-23.457,-30.835,-24.05,-26.002,-25.92,-23.628,-30.835,-16.647,-37.209,-25.92,-20.622,-37.455,-40.118,-24.061,0.0,0.0,0.0,0,1688144468.5888,2023-06-30 19:01:08,Rest
25,0,5.301,11.083,4.199,7.26,9.151,5.692,7.247,14.017,11.191,11.191,4.872,16.862,4.872,16.862,5.457,24.595,5.457,5.275,5.768,1.983,8.762,5.275,6.893,6.109,1.983,11.034,-4.384,6.893,5.014,-6.679,-7.29,4.14,0.0,3286761472.0,0.0,0,1688144468.5966,2023-06-30 19:01:08,Rest
26,0,26.3,34.126,29.81,21.597,25.536,21.568,24.658,33.471,27.574,27.574,23.822,33.751,23.822,33.751,27.993,38.403,27.993,31.91,31.378,28.621,37.442,31.91,31.477,30.694,28.621,32.54,27.384,31.477,30.625,19.968,25.505,24.116,0.0,1073741824.0,0.0,0,1688144468.6044,2023-06-30 19:01:08,Rest
27,0,21.663,26.407,23.632,17.477,21.412,17.96,18.486,24.728,19.862,19.862,17.651,23.983,17.651,23.983,22.33,28.119,22.33,20.607,25.711,16.297,22.548,20.607,20.175,21.954,16.297,21.237,17.623,20.175,22.91,8.677,13.696,17.432,0.0,0.0,0.0,0,1688144468.6123,2023-06-30 19:01:08,Rest
28,0,-4.999,0.765,-3.543,-0.983,-1.151,-3.575,-7.148,-0.4,-4.237,-4.237,-6.445,-0.631,-6.445,-0.631,-7.919,3.5,-7.919,-10.152,-4.541,-11.383,-9.238,-10.152,-7.51,-4.196,-11.383,-5.425,-10.572,-7.51,-5.29,-18.484,-15.007,-6.664,0.0,2097152.0,0.0,0,1688144468.6201,2023-06-30 19:01:08,Rest
29,0,-15.752,-10.506,-13.786,-10.204,-8.835,-15.867,-15.338,-8.084,-9.355,-9.355,-15.66,-5.754,-15.66,-5.754,-18.157,-4.701,-18.157,-15.777,-15.295,-14.958,-12.815,-15.777,-13.65,-12.901,-14.958,-10.542,-17.221,-13.65,-13.482,-23.588,-17.041,-15.366,0.0,0.0,0.0,0,1688144468.6279,2023-06-30 19:01:08,Rest
30,0,-5.49,-1.787,-5.063,-5.07,-0.117,-4.58,-2.003,2.683,0.388,0.388,-6.423,1.937,-6.423,1.937,-5.331,1.452,-5.331,-5.515,-1.959,-2.648,1.03,-5.515,-1.853,-4.691,-2.648,-0.286,-3.884,-1.853,-4.759,-14.856,-6.778,-8.691,0.0,0.0,0.0,0,1688144468.6357,2023-06-30 19:01:08,Rest
31,0,-5.485,-0.248,-7.107,-6.09,-0.117,-2.526,-3.025,2.68,-3.199,-3.199,-7.441,-1.139,-7.441,-1.139,-9.424,1.45,-9.424,-9.608,-3.494,-5.207,-3.069,-9.608,-3.388,-4.686,-5.207,-2.847,-6.954,-3.388,-5.779,-16.378,-10.357,-12.269,0.0,0.0,0.0,0,1688144468.6435,2023-06-30 19:01:08,Rest
32,0,-13.164,-10.494,-16.322,-13.768,-8.313,-15.331,-13.268,-9.618,-15.491,-15.491,-17.68,-7.798,-17.68,-7.798,-19.661,-2.65,-19.661,-15.746,-15.786,-13.911,-14.337,-15.746,-13.119,-12.366,-13.911,-10.016,-20.779,-13.119,-11.921,-20.46,-20.081,-20.453,3968.0,0.0,0.0,0,1688144468.6513,2023-06-30 19:01:08,Rest
33,0,-7.003,-7.922,-9.645,-13.755,-8.305,-11.218,-8.132,-10.633,-13.426,-13.426,-12.539,-3.692,-12.539,-3.692,-10.42,-0.598,-10.42,-9.583,-10.135,-7.749,-8.687,-9.583,-8.495,-8.255,-7.749,-4.371,-15.123,-8.495,-8.835,-14.804,-19.036,-15.31,3968.0,0.0,0.0,0,1688144468.6591,2023-06-30 19:01:08,Rest
34,0,3.25,6.431,3.684,-2.982,-1.125,0.577,1.61,1.161,-2.654,-2.654,-0.231,5.533,-0.231,5.533,0.349,9.137,0.349,-1.376,3.195,3.529,3.617,-1.376,2.784,2.511,3.529,4.343,-0.764,2.784,-0.117,-8.129,-7.234,-6.073,4096.0,0.0,0.0,0,1688144468.6669,2023-06-30 19:01:08,Rest
35,0,4.784,9.498,3.681,3.68,4.0,0.576,3.658,7.307,4.521,4.521,2.33,11.676,2.33,11.676,1.373,20.911,1.373,3.748,6.266,2.501,6.175,3.748,4.831,5.583,2.501,4.338,-0.251,4.831,3.469,-7.096,-2.104,-2.481,4096.0,0.0,0.0,0,1688144468.6748,2023-06-30 19:01:08,Rest
36,0,-0.344,1.804,-4.008,-2.471,1.434,-3.011,0.58,2.689,2.467,2.467,-1.77,9.102,-1.77,9.102,-1.19,18.328,-1.19,1.695,3.698,-5.186,1.046,1.695,-0.809,-0.571,-5.186,-2.838,-7.423,-0.809,-1.657,-11.7,-10.299,-5.552,3968.0,0.0,0.0,0,1688144468.6826,2023-06-30 19:01:08,Rest
37,0,-4.442,1.29,-6.565,-7.591,-2.666,-3.52,-3.519,-0.9,-3.171,-3.171,-4.33,4.482,-4.33,4.482,-6.824,8.064,-6.824,-4.454,1.645,-4.668,-2.541,-4.454,-3.37,-4.669,-4.668,-4.372,-11.001,-3.37,-4.73,-15.274,-12.85,-11.694,4096.0,0.0,0.0,0,1688144468.6904,2023-06-30 19:01:08,Rest
38,0,2.222,10.51,1.638,3.175,2.972,1.094,3.145,6.786,2.468,2.468,1.309,11.138,1.309,11.138,-0.669,14.716,-0.669,1.186,8.303,3.533,4.633,1.186,4.83,3.533,3.533,9.464,-3.818,4.83,6.034,-5.525,-2.078,-3.998,4096.0,0.0,0.0,0,1688144468.6982,2023-06-30 19:01:08,Rest
39,0,11.442,15.623,11.37,9.831,10.142,6.216,11.338,14.976,13.224,13.224,10.53,16.762,10.53,16.762,14.188,22.385,14.188,10.406,14.443,9.165,14.363,10.406,14.047,14.288,9.165,18.676,7.969,14.047,14.225,6.263,5.096,7.789,4096.0,0.0,0.0,0,1688144468.706,2023-06-30 19:01:08,Rest
40,0,2.721,7.41,5.211,-1.449,4.496,0.062,2.106,7.276,5.013,5.013,4.371,7.012,4.371,7.012,5.465,10.068,5.465,2.711,5.719,3.52,6.664,2.711,5.836,6.077,3.52,7.387,1.301,5.836,2.94,-0.403,-1.569,-0.928,4096.0,0.0,0.0,0,1688144468.7138,2023-06-30 19:01:08,Rest
41,0,-9.577,-4.893,-9.138,-11.182,-5.755,-8.647,-8.655,-6.563,-11.386,-11.386,-11.514,-2.217,-11.514,-2.217,-14.008,-0.189,-14.008,-11.124,-6.07,-7.242,-9.225,-11.124,-8.515,-8.786,-7.242,-4.916,-14.582,-8.515,-9.359,-13.723,-11.814,-15.271,3968.0,0.0,0.0,0,1688144468.7216,2023-06-30 19:01:08,Rest
42,0,-14.178,-10.523,-12.715,-11.17,-8.823,-9.663,-8.646,-8.093,-12.399,-12.399,-15.601,-3.239,-15.601,-3.239,-16.556,-0.188,-16.556,-16.748,-9.65,-13.382,-14.851,-16.748,-11.58,-12.364,-13.382,-7.985,-15.08,-11.58,-11.399,-18.832,-16.925,-17.818,4096.0,0.0,0.0,0,1688144468.7294,2023-06-30 19:01:08,Rest
43,0,-19.8,-12.562,-12.703,-13.721,-9.326,-14.776,-12.224,-8.598,-10.337,-10.337,-15.586,-7.847,-15.586,-7.847,-17.564,-5.311,-17.564,-20.83,-15.276,-13.881,-18.422,-20.83,-14.13,-12.864,-13.881,-14.124,-11.991,-14.13,-16.51,-23.936,-16.396,-21.386,3968.0,0.0,0.0,0,1688144468.7373,2023-06-30 19:01:08,Rest
44,0,-18.755,-11.012,-13.202,-13.707,-8.292,-15.786,-12.212,-9.614,-12.376,-12.376,-17.619,-7.839,-17.619,-7.839,-19.596,-6.331,-19.596,-20.297,-15.26,-11.818,-17.891,-20.297,-13.603,-13.363,-11.818,-16.16,-16.077,-13.603,-18.031,-26.474,-13.818,-21.365,3968.0,0.0,0.0,0,1688144468.7451,2023-06-30 19:01:08,Rest
45,0,-13.101,-8.44,-11.652,-10.62,-7.259,-10.135,-7.076,-4.993,-9.802,-9.802,-17.602,-3.733,-17.602,-3.733,-15.99,-3.763,-15.99,-18.227,-11.659,-12.318,-13.263,-18.227,-11.541,-12.325,-12.318,-14.094,-18.11,-11.541,-13.914,-26.447,-15.341,-14.683,4096.0,0.0,0.0,0,1688144468.7529,2023-06-30 19:01:08,Rest
46,0,-24.871,-17.653,-19.837,-19.83,-14.424,-19.859,-17.828,-11.648,-14.403,-14.403,-25.269,-13.463,-25.269,-13.463,-25.708,-11.444,-25.708,-28.455,-22.918,-24.089,-26.057,-28.455,-23.824,-22.559,-24.089,-22.789,-27.826,-23.824,-24.147,-40.253,-26.596,-25.939,3968.0,0.0,0.0,0,1688144468.7607,2023-06-30 19:01:08,Rest
47,0,-31.506,-23.271,-25.453,-22.372,-16.459,-24.962,-24.47,-18.809,-17.975,-17.975,-28.83,-17.548,-28.83,-17.548,-32.854,-14.506,-32.854,-33.55,-24.944,-28.163,-32.691,-33.55,-27.899,-27.147,-28.163,-24.816,-33.946,-27.899,-30.27,-44.824,-28.619,-33.598,3968.0,0.0,0.0,0,1688144468.7685,2023-06-30 19:01:08,Rest
48,0,-5.347,-2.243,-5.448,-0.321,2.0,-3.42,-0.367,1.702,3.048,3.048,-7.796,4.499,-7.796,4.499,-8.231,1.39,-8.231,-11.999,-0.841,-6.618,-4.481,-11.999,-1.231,-5.603,-6.618,-1.225,-11.37,-1.231,-7.186,-20.188,-4.512,-6.412,3968.0,0.0,0.0,0,1688144468.7763,2023-06-30 19:01:08,Rest
49,0,6.954,13.641,8.903,9.926,11.732,5.293,10.392,17.07,14.316,14.316,5.019,15.253,5.019,15.253,6.122,8.561,6.122,-0.717,6.845,4.659,9.868,-0.717,8.504,6.186,4.659,11.072,2.986,8.504,6.141,-10.946,7.788,9.988,4096.0,0.0,0.0,0,1688144468.7841,2023-06-30 19:01:08,Rest
50,0,-12.521,-3.791,-7.5,-6.99,-3.649,-10.082,-9.599,-0.878,-6.191,-6.191,-11.38,-1.669,-11.38,-1.669,-13.352,-2.718,-13.352,-16.085,-9.556,-11.739,-11.659,-16.085,-10.46,-10.727,-11.739,-4.821,-15.461,-10.46,-11.283,-29.379,-11.688,-10.514,3968.0,0.0,0.0,0,1688144468.7919,2023-06-30 19:01:08,Rest
51,0,-8.41,-7.373,-10.054,-8.008,-5.694,-7.51,-9.077,-5.488,-10.283,-10.283,-11.368,-1.155,-11.368,-1.155,-13.851,0.358,-13.851,-12.483,-4.936,-13.777,-10.111,-12.483,-8.4,-12.765,-13.777,-3.791,-15.957,-8.4,-11.272,-24.226,-13.725,-14.09,3968.0,0.0,0.0,0,1688144468.7998,2023-06-30 19:01:08,Rest
52,0,18.239,17.225,11.985,12.493,13.779,9.916,13.474,15.522,16.367,16.367,10.672,21.388,10.672,21.388,11.779,19.826,11.779,14.17,15.562,6.729,18.077,14.17,13.637,10.814,6.729,21.315,10.186,13.637,13.33,1.414,9.855,10.003,4096.0,0.0,0.0,0,1688144468.8076,2023-06-30 19:01:08,Rest
53,0,17.708,23.868,16.584,16.066,16.327,11.955,14.997,21.142,23.523,23.523,13.223,26.49,13.223,26.49,14.841,23.392,14.841,16.205,17.083,10.309,20.62,16.205,15.161,19.0,10.309,25.393,12.225,15.161,20.489,2.437,12.407,14.603,4096.0,0.0,0.0,0,1688144468.8154,2023-06-30 19:01:08,Rest
54,0,5.395,12.061,6.833,6.316,5.552,6.308,5.249,13.436,12.741,12.741,5.013,16.729,5.013,16.729,4.067,15.172,4.067,1.844,9.893,3.638,7.792,1.844,8.486,8.222,3.638,11.535,-0.595,8.486,9.71,-9.349,1.636,3.83,4096.0,0.0,0.0,0,1688144468.8232,2023-06-30 19:01:08,Rest
55,0,11.025,15.122,11.437,8.359,10.67,7.838,9.342,17.009,16.827,16.827,9.619,19.274,9.619,19.274,8.162,22.329,8.162,9.014,12.957,8.758,12.395,9.014,13.088,8.214,8.758,9.474,2.992,13.088,7.651,-4.729,8.294,5.876,4096.0,0.0,0.0,0,1688144468.831,2023-06-30 19:01:08,Rest
56,0,15.625,19.718,15.012,11.937,18.344,10.392,14.455,20.578,22.445,22.445,13.708,26.427,13.708,26.427,13.277,28.966,13.277,17.715,17.043,11.311,18.53,17.715,15.636,15.378,11.311,12.026,7.088,15.636,11.742,-1.138,14.433,8.431,4096.0,0.0,0.0,0,1688144468.8388,2023-06-30 19:01:08,Rest
57,0,6.387,8.428,2.702,2.704,9.104,5.771,7.781,12.873,16.275,16.275,4.985,21.278,4.985,21.278,4.042,17.154,4.042,3.352,8.829,3.102,7.753,3.352,5.887,8.191,3.102,4.842,-0.092,5.887,7.119,-9.334,4.173,-1.311,4096.0,0.0,0.0,0,1688144468.8466,2023-06-30 19:01:08,Rest
58,0,-1.816,-2.339,-6.01,-4.984,-1.664,-3.456,-0.936,3.126,10.623,10.623,-4.242,10.498,-4.242,10.498,-6.721,5.866,-6.721,-9.971,-3.475,-4.585,-6.087,-9.971,-5.39,-5.138,-4.585,-4.384,-9.313,-5.39,-3.646,-18.546,-5.053,-8.994,4096.0,0.0,0.0,0,1688144468.8544,2023-06-30 19:01:08,Rest
59,0,-2.839,-1.825,-3.955,-1.393,0.899,-4.478,-1.96,3.635,10.613,10.613,-4.238,9.463,-4.238,9.463,-4.665,10.984,-4.665,-8.424,-2.447,-9.192,-7.106,-8.424,-6.921,-6.157,-9.192,-5.917,-13.402,-6.921,-7.229,-20.576,-6.072,-7.96,3968.0,0.0,0.0,0,1688144468.8623,2023-06-30 19:01:08,Rest
60,0,0.75,3.813,1.684,2.707,7.046,1.162,3.165,11.829,12.651,12.651,1.914,16.626,1.914,16.626,0.463,19.17,0.463,-3.805,6.265,-6.621,1.611,-3.805,-0.767,0.509,-6.621,-1.813,-6.729,-0.767,-2.098,-17.994,-1.968,-4.366,3968.0,0.0,0.0,0,1688144468.8701,2023-06-30 19:01:08,Rest
61,0,1.774,6.883,3.732,2.704,7.039,2.698,4.699,13.354,13.151,13.151,1.4,16.609,1.4,16.609,-1.587,16.077,-1.587,-1.752,5.746,1.07,6.22,-1.752,2.82,1.533,1.07,1.775,-0.575,2.82,1.49,-17.976,2.133,-1.8,4096.0,0.0,0.0,0,1688144468.8779,2023-06-30 19:01:08,Rest
62,0,1.26,6.363,3.216,6.8,7.544,3.72,5.719,10.266,13.138,13.138,-1.675,14.031,-1.675,14.031,0.464,11.45,0.464,-0.726,4.716,1.069,4.677,-0.726,3.33,2.044,1.069,5.36,-2.111,3.33,0.976,-16.421,4.692,1.275,4096.0,0.0,0.0,0,1688144468.8857,2023-06-30 19:01:08,Rest
63,0,5.87,8.406,6.799,10.38,11.635,7.302,10.836,15.892,16.199,16.199,6.523,19.14,6.523,19.14,8.148,17.074,8.148,1.837,11.883,2.093,7.746,1.837,5.376,7.677,2.093,9.453,3.014,5.376,4.049,-9.745,7.761,6.397,4096.0,0.0,0.0,0,1688144468.8935,2023-06-30 19:01:08,Rest
64,0,9.962,11.472,11.403,7.295,10.599,6.27,10.826,19.974,17.207,17.207,11.64,21.17,11.64,21.17,7.628,21.155,7.628,6.446,12.896,8.238,11.324,6.446,8.444,10.231,8.238,9.443,7.622,8.444,8.143,-9.223,9.803,7.928,0.0,0.0,0.0,0,1688144468.9013,2023-06-30 19:01:08,Rest
65,0,9.44,13.509,11.391,10.874,10.076,8.313,8.253,15.856,16.677,16.677,9.067,20.637,9.067,20.637,7.108,17.548,7.108,10.538,12.883,10.792,15.411,10.538,12.534,9.709,10.792,8.922,2.491,12.534,10.184,-10.238,11.33,7.92,0.0,0.0,0.0,0,1688144468.9091,2023-06-30 19:01:08,Rest
66,0,20.189,24.767,20.601,24.183,23.386,18.039,21.053,24.037,27.419,27.419,19.304,33.424,19.304,33.424,21.445,25.727,21.445,19.749,27.727,19.49,29.228,19.749,23.28,21.994,19.49,20.696,12.223,23.28,19.396,6.678,22.589,18.158,0.0,0.0,0.0,0,1688144468.9169,2023-06-30 19:01:08,Rest
67,0,34.513,36.013,33.389,27.745,34.121,25.706,33.327,38.87,37.638,37.638,31.068,44.661,31.068,44.661,32.182,40.046,32.182,31.0,39.995,32.791,39.445,31.0,32.478,34.78,32.791,30.921,31.678,32.478,31.159,19.479,33.837,29.41,0.0,0.0,0.0,0,1688144468.9248,2023-06-30 19:01:08,Rest
68,0,25.77,27.267,24.134,17.984,22.304,21.581,22.535,31.146,27.866,27.866,21.303,34.37,21.303,34.37,23.953,32.834,23.953,22.259,27.659,24.561,29.16,22.259,24.761,24.499,24.561,20.644,23.962,24.761,26.518,5.115,24.07,20.672,0.0,0.0,0.0,0,1688144468.9326,2023-06-30 19:01:08,Rest
69,0,4.739,9.309,3.617,9.257,7.425,7.215,8.168,11.135,13.494,13.494,5.912,17.942,5.912,17.942,7.023,13.333,7.023,-0.817,7.652,1.483,9.15,-0.817,5.781,5.519,1.483,5.254,0.884,5.781,5.999,-8.722,4.066,3.233,0.0,0.0,0.0,0,1688144468.9404,2023-06-30 19:01:08,Rest
70,0,0.636,6.226,1.564,5.661,10.491,-1.501,4.574,10.612,13.481,13.481,3.345,14.338,3.345,14.338,-0.156,10.246,-0.156,-3.89,4.57,-3.13,3.506,-3.89,0.14,3.977,-3.13,3.712,-2.703,0.14,-1.692,-6.152,1.5,0.156,0.0,0.0,0.0,0,1688144468.9482,2023-06-30 19:01:08,Rest
71,0,10.882,15.954,12.834,10.779,19.702,10.796,9.692,24.946,22.689,22.689,10.001,24.057,10.001,24.057,9.578,23.043,9.578,13.02,17.373,13.78,16.822,13.02,13.972,15.244,13.78,11.393,10.62,13.972,13.167,2.563,17.38,8.865,0.0,0.0,0.0,0,1688144468.956,2023-06-30 19:01:08,Rest
72,0,19.068,25.159,21.53,21.526,22.244,23.08,21.978,30.556,29.326,29.326,20.75,34.28,20.75,34.28,20.839,33.267,20.839,20.18,26.577,25.549,29.613,20.18,26.253,23.425,25.549,19.579,23.929,26.253,23.912,13.319,27.609,16.028,0.0,0.0,0.0,0,1688144468.9638,2023-06-30 19:01:08,Rest
73,0,16.999,23.597,21.508,20.48,18.636,14.86,21.444,22.329,23.661,23.661,19.705,27.585,19.705,27.585,17.232,28.11,17.232,13.499,18.866,18.863,23.948,13.499,21.616,19.303,18.863,16.997,22.881,21.616,17.228,14.33,21.946,16.524,0.0,0.0,0.0,0,1688144468.9716,2023-06-30 19:01:08,Rest
74,0,9.298,13.84,12.778,9.189,12.469,6.136,7.59,15.134,12.367,12.367,8.926,16.799,8.926,16.799,7.993,14.25,7.993,6.826,9.114,9.623,13.166,6.826,13.91,10.063,9.623,6.734,14.661,13.91,9.014,4.07,14.751,10.872,0.0,0.0,0.0,0,1688144468.9794,2023-06-30 19:01:08,Rest
75,0,9.801,12.801,10.203,8.155,12.969,11.253,9.632,17.68,12.354,12.354,9.942,20.369,9.942,20.369,9.522,11.162,9.522,9.381,14.74,13.199,17.764,9.381,14.921,12.102,13.199,8.777,15.158,14.921,11.566,7.14,16.786,6.251,0.0,0.0,0.0,0,1688144468.9873,2023-06-30 19:01:08,Rest
76,0,18.5,22.523,16.853,16.344,20.128,15.853,19.356,22.786,17.977,17.977,18.641,24.959,18.641,24.959,15.66,19.347,15.66,15.007,20.873,18.309,24.406,15.007,17.467,18.75,18.309,15.94,15.143,17.467,15.653,16.354,18.818,10.855,0.0,0.0,0.0,0,1688144468.9951,2023-06-30 19:01:08,Rest
77,0,21.043,25.574,19.398,18.889,21.133,15.837,14.726,23.275,19.496,19.496,20.16,25.959,20.16,25.959,18.206,22.402,18.206,13.455,18.803,15.217,20.283,13.455,16.938,16.682,15.217,12.85,10.005,16.938,18.712,15.825,15.726,19.041,0.0,0.0,0.0,0,1688144469.0029,2023-06-30 19:01:09,Rest
78,0,18.973,23.499,20.915,17.333,18.55,18.382,15.223,24.277,21.526,21.526,19.627,29.007,19.627,29.007,17.676,19.818,17.676,11.904,18.784,14.69,22.312,11.904,17.945,18.202,14.69,15.399,15.118,17.945,21.767,19.396,16.222,19.535,0.0,0.0,0.0,0,1688144469.0107,2023-06-30 19:01:09,Rest
79,0,20.491,27.062,23.968,17.828,20.069,18.364,21.868,25.789,23.041,23.041,19.608,24.879,19.608,24.879,17.658,18.261,17.658,15.991,20.302,17.236,26.9,15.991,19.977,23.819,17.236,23.581,19.714,19.977,21.233,23.987,19.28,17.978,0.0,0.0,0.0,0,1688144469.0185,2023-06-30 19:01:09,Rest
80,0,24.057,30.109,21.383,18.835,22.61,17.833,17.748,25.251,24.043,24.043,20.1,23.83,20.1,23.83,20.714,19.268,20.714,17.512,19.769,17.732,24.824,17.512,22.006,21.234,17.732,22.533,16.108,22.006,21.211,20.889,21.822,22.571,0.0,0.0,0.0,0,1688144469.0263,2023-06-30 19:01:09,Rest
81,0,27.619,28.029,23.923,19.841,24.637,22.426,20.804,26.25,27.605,27.605,24.691,33.54,24.691,33.54,25.817,25.908,25.817,21.08,26.922,21.812,29.922,21.08,26.595,23.774,21.812,21.485,22.239,26.595,27.85,20.868,25.387,25.622,0.0,0.0,0.0,0,1688144469.0341,2023-06-30 19:01:09,Rest
82,0,28.103,28.001,30.047,21.87,27.174,24.965,28.468,29.298,25.528,25.528,25.691,35.555,25.691,35.555,26.815,32.542,26.815,26.695,32.53,26.401,35.528,26.695,28.105,30.922,26.401,23.513,27.34,28.105,28.847,22.384,25.873,24.06,0.0,0.0,0.0,0,1688144469.0419,2023-06-30 19:01:09,Rest
83,0,29.1,31.559,28.992,25.947,27.659,23.916,24.853,33.88,24.99,24.99,26.177,32.958,26.177,32.958,25.764,33.022,25.764,26.668,30.449,26.375,33.443,26.668,29.614,29.355,26.375,27.076,23.215,29.614,27.793,21.85,27.385,27.11,0.0,0.0,0.0,0,1688144469.0498,2023-06-30 19:01:09,Rest
84,0,38.292,41.262,35.111,34.118,34.291,30.552,32.0,42.555,36.236,36.236,39.471,42.147,39.471,42.147,35.472,39.137,35.472,32.789,38.615,35.57,44.168,32.789,40.855,35.985,35.57,39.856,33.437,40.855,39.549,35.66,39.14,35.279,0.0,0.0,0.0,0,1688144469.0576,2023-06-30 19:01:09,Rest
85,0,50.037,54.028,50.957,41.768,43.991,42.304,48.875,51.734,46.958,46.958,50.703,50.302,50.703,50.302,48.757,50.881,48.757,46.076,52.921,49.879,60.518,46.076,51.573,52.855,49.879,51.6,50.31,51.573,52.317,50.994,50.884,43.441,0.0,0.0,0.0,0,1688144469.0654,2023-06-30 19:01:09,Rest
86,0,53.573,57.56,52.955,46.337,45.996,45.848,49.338,57.318,51.522,51.522,49.115,53.837,49.115,53.837,51.269,51.855,51.269,47.567,53.893,48.805,60.457,47.567,50.496,53.827,48.805,51.548,51.284,50.496,52.265,49.406,52.882,49.033,0.0,0.0,0.0,0,1688144469.0732,2023-06-30 19:01:09,Rest
87,0,51.47,52.892,46.755,49.365,48.511,43.753,45.19,60.334,56.082,56.082,47.529,58.907,47.529,58.907,47.12,50.266,47.12,39.835,48.204,42.096,54.761,39.835,46.86,49.163,42.096,52.009,48.672,46.86,49.651,47.307,52.317,49.496,0.0,0.0,0.0,0,1688144469.081,2023-06-30 19:01:09,Rest
88,0,49.882,54.888,49.782,48.291,52.049,43.709,50.268,60.786,55.001,55.001,49.531,58.848,49.531,58.848,47.073,57.9,47.073,39.795,49.18,44.103,56.244,39.795,47.325,53.212,44.103,52.469,47.086,47.325,50.113,50.334,51.753,49.959,0.0,0.0,0.0,0,1688144469.0888,2023-06-30 19:01:09,Rest
89,0,50.857,58.419,52.806,44.144,46.874,43.153,50.218,58.676,51.36,51.36,51.53,56.74,51.53,56.74,49.587,62.965,49.587,43.854,53.229,43.034,58.749,43.854,47.79,52.646,43.034,48.83,41.404,47.79,50.063,46.697,52.213,52.471,0.0,0.0,0.0,0,1688144469.0966,2023-06-30 19:01:09,Rest
90,0,49.269,53.75,50.192,43.075,43.241,42.086,47.606,56.568,49.771,49.771,50.967,55.658,50.967,55.658,48.001,55.73,48.001,43.81,53.688,40.43,58.178,43.81,47.23,48.495,40.43,47.757,42.899,47.23,50.526,44.089,51.136,51.394,0.0,0.0,0.0,0,1688144469.1044,2023-06-30 19:01:09,Rest
91,0,43.072,49.598,46.555,41.495,43.71,40.507,46.022,52.925,45.623,45.623,44.256,48.943,44.256,48.943,42.317,46.453,42.317,40.18,45.95,40.389,51.972,40.18,44.109,48.447,40.389,43.611,43.881,44.109,47.913,42.508,44.425,44.17,0.0,0.0,0.0,0,1688144469.1123,2023-06-30 19:01:09,Rest
92,0,40.467,50.061,44.459,37.355,39.568,38.417,41.877,48.774,40.967,40.967,40.625,43.258,40.625,43.258,40.226,43.332,40.226,35.529,40.269,37.787,47.822,35.529,41.503,45.325,37.787,39.469,40.763,41.503,43.255,36.83,42.844,41.564,0.0,0.0,0.0,0,1688144469.1201,2023-06-30 19:01:09,Rest
93,0,43.501,47.961,43.39,37.318,37.991,36.842,40.811,46.676,38.877,38.877,45.195,45.264,45.195,45.264,44.796,46.875,44.796,36.518,44.839,36.725,50.335,36.518,41.974,43.23,36.725,41.991,42.772,41.974,43.724,36.281,45.875,42.035,0.0,0.0,0.0,0,1688144469.1279,2023-06-30 19:01:09,Rest
94,0,37.822,40.229,37.199,32.157,34.367,32.194,36.671,42.019,32.178,32.178,38.49,39.584,38.49,39.584,40.141,43.755,40.141,32.895,40.184,33.614,42.088,32.895,35.784,39.088,33.614,35.801,36.069,35.784,38.045,31.634,36.608,35.333,0.0,0.0,0.0,0,1688144469.1357,2023-06-30 19:01:09,Rest
95,0,21.39,28.406,24.867,18.805,19.988,21.403,21.778,29.681,20.875,20.875,21.033,25.199,21.033,25.199,21.657,32.44,21.657,16.469,22.725,16.162,24.115,16.469,22.429,24.192,16.162,17.322,16.565,22.429,19.564,12.135,18.128,20.953,0.0,0.0,0.0,0,1688144469.1435,2023-06-30 19:01:09,Rest
96,0,10.098,15.057,15.108,11.102,13.82,11.136,10.485,18.893,13.682,13.682,11.791,18.002,11.791,18.002,8.316,24.723,8.316,3.645,13.993,3.338,14.357,3.645,11.648,10.848,3.338,7.571,5.79,11.648,7.249,1.876,9.4,11.71,3968.0,0.0,0.0,0,1688144469.1513,2023-06-30 19:01:09,Rest
97,0,9.576,9.919,10.482,12.115,16.88,9.075,10.987,18.362,11.619,11.619,10.754,17.984,10.754,17.984,8.82,24.186,8.82,3.641,13.979,3.847,10.244,3.641,5.488,10.837,3.847,7.563,5.784,5.488,6.729,8.534,9.391,9.649,4096.0,0.0,0.0,0,1688144469.1591,2023-06-30 19:01:09,Rest
98,0,10.078,12.471,10.472,13.128,14.814,9.579,11.488,20.393,12.119,12.119,8.182,17.454,8.182,17.454,8.811,23.649,8.811,1.588,8.33,1.282,5.623,1.588,3.946,12.876,1.282,9.093,5.778,3.946,8.772,10.575,9.894,9.127,4096.0,0.0,0.0,0,1688144469.1669,2023-06-30 19:01:09,Rest
99,0,3.408,10.409,9.437,8.504,12.238,4.446,7.891,14.225,10.57,10.57,4.588,11.289,4.588,11.289,1.63,14.917,1.63,-6.098,-0.9,-4.355,2.032,-6.098,2.917,7.74,-4.355,8.059,3.211,2.917,5.177,4.417,6.298,8.606,4096.0,0.0,0.0,0,1688144469.1748,2023-06-30 19:01:09,Rest
100,0,-6.329,0.665,-2.868,-1.751,5.566,-5.805,-2.876,2.427,-4.297,-4.297,-4.126,-3.067,-4.126,-3.067,-9.13,-5.591,-9.13,-15.826,-12.682,-9.986,-8.217,-15.826,-6.819,-5.076,-9.986,-2.195,-9.6,-6.819,-5.075,-4.809,-3.442,0.401,4096.0,0.0,0.0,0,1688144469.1826,2023-06-30 19:01:09,Rest
101,0,-14.007,-8.045,-14.136,-12.507,-6.223,-11.434,-14.656,-8.334,-20.174,-20.174,-14.368,-16.384,-14.368,-16.384,-18.343,-19.93,-18.343,-24.519,-20.354,-19.197,-19.479,-24.519,-17.059,-14.805,-19.197,-9.878,-20.349,-17.059,-13.779,-13.513,-12.148,-12.92,3968.0,0.0,0.0,0,1688144469.1904,2023-06-30 19:01:09,Rest
102,0,-15.53,-10.086,-9.511,-11.983,-7.241,-10.91,-11.567,-12.936,-19.13,-19.13,-14.866,-16.88,-14.866,-16.88,-19.349,-17.861,-19.349,-25.519,-17.772,-22.252,-18.435,-25.519,-15.505,-11.716,-22.252,-6.794,-14.693,-15.505,-13.253,-15.037,-12.648,-14.444,3968.0,0.0,0.0,0,1688144469.1982,2023-06-30 19:01:09,Rest
103,0,-13.465,-10.589,-7.453,-8.384,-3.648,-10.387,-5.92,-9.849,-14.5,-14.5,-11.265,-12.765,-11.265,-12.765,-16.256,-14.769,-16.256,-22.932,-16.218,-17.619,-12.781,-22.932,-12.928,-9.655,-17.619,-6.275,-11.092,-12.928,-11.19,-15.534,-11.099,-9.819,3968.0,0.0,0.0,0,1688144469.206,2023-06-30 19:01:09,Rest
104,0,-11.403,-8.529,-11.031,-10.425,-7.743,-10.889,-8.988,-5.229,-16.022,-16.022,-11.766,-11.728,-11.766,-11.728,-12.653,-13.217,-12.653,-22.909,-16.202,-16.064,-12.256,-22.909,-12.402,-12.207,-16.064,-8.83,-14.155,-12.402,-12.204,-18.592,-9.551,-12.37,3968.0,0.0,0.0,0,1688144469.2138,2023-06-30 19:01:09,Rest
105,0,-10.367,-3.397,-4.873,-8.878,-6.198,-6.78,-7.442,-3.174,-16.518,-16.518,-10.218,-10.179,-10.218,-10.179,-10.592,-7.569,-10.592,-18.788,-10.55,-13.487,-9.682,-18.788,-9.828,-8.608,-13.487,-5.235,-10.042,-9.828,-10.655,-13.963,-6.467,-11.333,3968.0,0.0,0.0,0,1688144469.2216,2023-06-30 19:01:09,Rest
106,0,-9.332,-4.931,-3.331,-3.746,-2.093,-4.724,-4.874,-5.22,-18.039,-18.039,-8.158,-10.681,-8.158,-10.681,-13.655,-8.073,-13.655,-17.232,-11.052,-13.986,-8.648,-17.232,-11.356,-6.038,-13.986,-4.205,-12.081,-11.356,-10.644,-11.388,-8.51,-5.687,4096.0,0.0,0.0,0,1688144469.2294,2023-06-30 19:01:09,Rest
107,0,-9.835,-11.074,-13.574,-8.865,-6.19,-10.354,-10.504,-9.826,-22.632,-22.632,-12.761,-15.281,-12.761,-15.281,-17.74,-11.139,-17.74,-21.314,-16.676,-21.656,-13.762,-21.314,-13.906,-11.155,-21.656,-6.762,-20.779,-13.906,-12.682,-20.085,-13.625,-10.804,3968.0,0.0,0.0,0,1688144469.2373,2023-06-30 19:01:09,Rest
108,0,-12.386,-10.038,-14.585,-16.029,-8.233,-13.93,-11.518,-10.841,-22.609,-22.609,-14.797,-15.266,-14.797,-15.266,-17.21,-7.542,-17.21,-21.805,-15.635,-21.635,-17.847,-21.805,-14.916,-13.193,-21.635,-6.243,-19.221,-14.916,-13.182,-23.139,-13.611,-15.916,3968.0,0.0,0.0,0,1688144469.2451,2023-06-30 19:01:09,Rest
109,0,-16.472,-10.028,-14.058,-13.451,-11.298,-13.916,-11.507,-10.317,-23.099,-23.099,-14.27,-13.714,-14.27,-13.714,-20.266,-10.608,-20.266,-26.394,-18.693,-22.125,-20.903,-26.394,-22.074,-14.205,-22.125,-10.336,-20.739,-22.074,-17.267,-21.067,-15.647,-13.339,3968.0,0.0,0.0,0,1688144469.2529,2023-06-30 19:01:09,Rest
110,0,-20.042,-16.678,-20.704,-14.462,-15.386,-17.489,-19.18,-12.869,-25.637,-25.637,-19.379,-17.798,-19.379,-17.798,-25.369,-15.208,-25.369,-33.539,-22.26,-30.812,-23.956,-33.539,-26.15,-20.338,-30.812,-16.473,-29.427,-26.15,-21.349,-29.243,-20.754,-19.473,3968.0,0.0,0.0,0,1688144469.2607,2023-06-30 19:01:09,Rest
111,0,-11.825,-12.05,-12.486,-12.399,-4.612,-12.86,-13.525,-5.171,-15.365,-15.365,-13.724,-11.633,-13.724,-11.633,-14.585,-1.873,-14.585,-19.161,-10.967,-24.122,-13.174,-19.161,-11.267,-14.17,-24.122,-9.284,-19.151,-11.267,-12.106,-25.115,-13.561,-20.478,3968.0,0.0,0.0,0,1688144469.2685,2023-06-30 19:01:09,Rest
112,0,3.044,6.405,5.457,4.52,9.738,4.571,5.956,12.252,1.044,1.044,4.733,4.26,4.733,4.26,1.823,10.937,1.823,-1.724,3.388,-2.581,4.258,-1.724,4.113,5.312,-2.581,9.68,1.36,4.113,3.276,-2.548,5.408,1.571,4096.0,0.0,0.0,0,1688144469.2763,2023-06-30 19:01:09,Rest
113,0,2.016,8.448,3.915,6.565,5.629,5.079,4.413,8.654,-3.056,-3.056,2.679,0.67,2.679,0.67,-3.302,-0.857,-3.302,-12.993,-2.251,-5.139,0.155,-12.993,-3.063,4.794,-5.139,9.158,-2.74,-3.063,1.223,-3.058,5.915,7.205,4096.0,0.0,0.0,0,1688144469.2841,2023-06-30 19:01:09,Rest
114,0,-16.429,-13.59,-14.532,-16.496,-9.746,-17.98,-15.059,-14.408,-23.033,-23.033,-20.378,-18.798,-20.378,-18.798,-22.766,-19.3,-22.766,-32.96,-22.228,-27.676,-22.899,-32.96,-23.552,-19.802,-27.676,-14.929,-24.766,-23.552,-18.246,-27.646,-16.632,-20.979,3968.0,0.0,0.0,0,1688144469.2919,2023-06-30 19:01:09,Rest
115,0,-27.684,-26.896,-26.301,-26.725,-19.982,-27.696,-24.265,-25.665,-31.719,-31.719,-28.554,-26.464,-28.554,-26.464,-30.94,-25.94,-30.94,-38.05,-32.452,-35.333,-33.634,-38.05,-31.726,-30.028,-35.333,-26.185,-33.451,-31.726,-31.548,-36.84,-28.911,-34.79,3968.0,0.0,0.0,0,1688144469.2998,2023-06-30 19:01:09,Rest
116,0,-21.508,-17.136,-21.664,-16.453,-15.351,-15.885,-19.118,-17.442,-26.564,-26.564,-20.329,-21.315,-20.329,-21.315,-25.274,-23.865,-25.274,-34.938,-22.686,-25.051,-24.379,-34.938,-20.935,-18.215,-25.051,-14.376,-22.659,-20.935,-23.319,-22.971,-16.587,-22.46,3968.0,0.0,0.0,0,1688144469.3076,2023-06-30 19:01:09,Rest
117,0,-10.728,-6.36,-8.834,-9.776,-4.065,-8.697,-10.39,-6.666,-19.877,-19.877,-15.186,-14.121,-15.186,-14.121,-17.052,-20.255,-17.052,-27.731,-12.929,-14.78,-14.621,-27.731,-11.693,-11.537,-14.78,-4.115,-12.902,-11.693,-10.488,-11.677,-4.787,-12.704,3968.0,0.0,0.0,0,1688144469.3154,2023-06-30 19:01:09,Rest
118,0,-9.181,-6.866,-7.801,-9.254,-4.061,-10.738,-8.33,-4.61,-16.271,-16.271,-14.146,-7.959,-14.146,-7.959,-15.498,-17.673,-15.498,-25.654,-17.015,-16.302,-15.119,-25.654,-17.317,-12.55,-16.302,-6.16,-16.988,-17.317,-11.502,-12.69,-9.906,-12.179,3968.0,0.0,0.0,0,1688144469.3232,2023-06-30 19:01:09,Rest
119,0,-16.856,-10.958,-15.478,-11.294,-9.692,-13.801,-15.494,-8.192,-17.792,-17.792,-16.181,-10.001,-16.181,-10.001,-20.093,-14.582,-20.093,-30.751,-21.609,-24.995,-19.714,-30.751,-23.959,-14.586,-24.995,-11.79,-25.68,-23.959,-18.663,-21.386,-19.629,-14.216,3968.0,0.0,0.0,0,1688144469.331,2023-06-30 19:01:09,Rest
120,0,-18.888,-12.484,-13.925,-13.844,-7.121,-14.299,-17.016,-7.671,-19.823,-19.823,-18.214,-13.064,-18.214,-13.064,-20.585,-9.444,-20.585,-28.159,-16.464,-25.483,-19.182,-28.159,-20.349,-18.158,-25.483,-17.925,-26.167,-20.349,-17.62,-28.025,-21.147,-16.251,3968.0,0.0,0.0,0,1688144469.3388,2023-06-30 19:01:09,Rest
121,0,-11.697,-9.397,-7.764,-9.22,-1.479,-10.186,-8.289,-4.59,-13.144,-13.144,-13.073,-7.416,-13.073,-7.416,-14.929,-6.873,-14.929,-18.909,-10.812,-16.748,-13.015,-18.909,-14.694,-13.017,-16.748,-14.834,-20.505,-14.694,-11.967,-21.849,-16.515,-12.136,3968.0,0.0,0.0,0,1688144469.3466,2023-06-30 19:01:09,Rest
122,0,-7.075,-4.265,-5.707,-1.526,2.109,-6.078,-4.695,-1.512,-4.421,-4.421,-6.399,-0.236,-6.399,-0.236,-10.816,-4.817,-10.816,-15.304,-7.215,-12.12,-6.855,-15.304,-10.068,-2.758,-12.12,-4.06,-14.337,-10.068,-6.832,-9.02,-8.814,-5.464,3968.0,0.0,0.0,0,1688144469.3544,2023-06-30 19:01:09,Rest
123,0,0.105,2.399,1.471,4.623,8.767,0.588,-0.079,9.248,4.292,4.292,0.779,7.961,0.779,7.961,-0.047,7.483,-0.047,-5.043,3.55,-4.424,3.398,-5.043,-1.861,1.856,-4.424,4.653,-4.589,-1.861,2.397,0.211,0.417,2.226,4096.0,0.0,0.0,0,1688144469.3623,2023-06-30 19:01:09,Rest
124,0,17.523,15.205,16.839,17.427,17.98,13.395,16.827,25.121,18.12,18.12,15.635,22.298,15.635,22.298,18.909,24.894,18.909,12.893,19.941,9.925,19.789,12.893,15.047,15.174,9.925,12.845,9.76,15.047,15.714,8.92,11.687,17.593,4096.0,0.0,0.0,0,1688144469.3701,2023-06-30 19:01:09,Rest
125,0,27.239,25.436,26.556,26.118,25.646,21.067,25.007,30.731,24.25,24.25,26.891,29.448,26.891,29.448,25.038,31.017,25.038,19.54,26.068,16.576,28.991,19.54,29.376,28.479,16.576,20.517,19.997,29.376,23.383,15.571,20.385,24.748,4096.0,0.0,0.0,0,1688144469.3779,2023-06-30 19:01:09,Rest
126,0,21.064,23.873,22.943,19.944,25.621,17.459,17.297,28.139,15.517,15.517,23.277,23.27,23.277,23.27,17.328,24.838,17.328,15.935,20.919,17.584,25.888,15.935,25.761,21.79,17.584,18.447,18.952,25.761,20.286,13.506,21.901,16.014,4096.0,0.0,0.0,0,1688144469.3857,2023-06-30 19:01:09,Rest
127,0,18.994,19.239,18.822,14.289,18.423,15.393,16.255,24.524,14.476,14.476,19.156,20.686,19.156,20.686,16.286,18.153,16.286,13.357,19.874,19.103,23.813,13.357,17.538,17.67,19.103,15.867,14.835,17.538,19.753,11.443,18.805,13.949,4096.0,0.0,0.0,0,1688144469.3935,2023-06-30 19:01:09,Rest
0,0,21.024,21.269,19.828,16.836,15.843,14.865,19.825,20.401,19.073,19.073,20.161,23.739,20.161,23.739,20.368,14.549,20.368,10.27,19.342,16.01,22.764,10.27,18.033,22.263,16.01,18.925,14.82,18.033,22.808,13.481,16.225,18.545,0.0,0.0,0.0,0,1688144469.4013,2023-06-30 19:01:09,Rest
1,0,16.905,19.711,17.247,16.307,17.364,11.264,14.17,21.918,10.857,10.857,18.092,18.592,18.092,18.592,16.762,11.461,16.762,6.161,13.687,11.383,18.643,6.161,18.015,17.118,11.383,16.857,12.244,18.015,18.686,12.955,15.184,12.891,0.0,0.0,0.0,0,1688144469.4091,2023-06-30 19:01:09,Rest
2,0,17.913,18.666,17.742,15.266,18.371,13.814,13.644,25.995,7.772,7.772,18.586,17.036,18.586,17.036,14.696,13.498,14.696,6.667,16.235,15.47,21.698,6.667,19.022,17.613,15.47,16.328,12.744,19.022,17.643,13.967,17.73,11.854,0.0,0.0,0.0,0,1688144469.4169,2023-06-30 19:01:09,Rest
3,0,27.116,27.357,27.97,20.886,23.988,20.973,21.827,26.481,17.498,17.498,23.69,25.216,23.69,25.216,20.829,18.608,20.829,13.321,25.44,21.09,31.923,13.321,28.224,29.891,21.09,24.508,21.952,28.224,25.822,21.125,22.836,24.65,0.0,0.0,0.0,0,1688144469.4248,2023-06-30 19:01:09,Rest
4,0,30.163,33.477,32.04,23.939,27.55,21.976,22.83,32.09,20.554,20.554,26.228,29.29,26.228,29.29,24.906,19.102,24.906,17.918,27.464,20.045,32.915,17.918,29.733,29.349,20.045,29.095,25.004,29.733,29.895,25.203,23.325,29.236,0.0,0.0,0.0,0,1688144469.4326,2023-06-30 19:01:09,Rest
5,0,26.547,26.784,23.299,22.379,21.887,17.856,21.782,35.644,15.923,15.923,23.641,25.674,23.641,25.674,22.32,17.033,22.32,13.802,22.826,14.389,27.759,13.802,22.018,23.172,14.389,25.48,18.319,22.018,23.717,22.104,18.691,22.547,0.0,0.0,0.0,0,1688144469.4404,2023-06-30 19:01:09,Rest
6,0,21.397,19.072,17.128,16.208,15.718,13.74,19.711,23.313,10.784,10.784,17.982,20.525,17.982,20.525,16.15,18.553,16.15,8.153,15.63,10.276,23.121,8.153,18.923,20.075,10.276,17.769,13.69,18.923,16.009,14.397,14.574,16.376,0.0,0.0,0.0,0,1688144469.4482,2023-06-30 19:01:09,Rest
7,0,11.129,13.418,10.963,6.971,11.604,7.578,7.908,11.506,1.039,1.039,9.254,14.869,9.254,14.869,8.449,14.436,8.449,4.046,8.443,6.68,12.339,4.046,13.268,10.833,6.68,6.481,5.992,13.268,9.845,2.087,4.313,8.163,0.0,0.0,0.0,0,1688144469.456,2023-06-30 19:01:09,Rest
8,0,8.045,9.306,4.805,3.89,7.494,5.009,2.777,10.47,-2.548,-2.548,6.684,13.83,6.684,13.83,5.367,8.274,5.367,1.48,9.971,1.55,6.179,1.48,5.57,6.724,1.55,6.474,-4.773,5.57,8.298,-2.526,-5.425,5.081,0.0,0.0,0.0,0,1688144469.4638,2023-06-30 19:01:09,Rest
9,0,18.283,15.957,12.485,10.034,12.097,13.201,13.021,15.071,7.701,7.701,16.411,20.988,16.411,20.988,13.046,18.0,13.046,8.651,16.621,5.135,17.956,8.651,14.274,15.426,5.135,19.276,2.404,14.274,13.926,10.797,5.339,14.298,0.0,0.0,0.0,0,1688144469.4716,2023-06-30 19:01:09,Rest
10,0,23.9,22.088,21.694,13.61,17.208,17.286,18.131,21.203,12.304,12.304,23.567,23.529,23.567,23.529,21.23,27.715,21.23,17.352,19.678,13.326,26.647,17.352,23.481,19.509,13.326,23.355,15.21,23.481,18.522,18.983,15.58,19.406,0.0,0.0,0.0,0,1688144469.4794,2023-06-30 19:01:09,Rest
11,0,12.605,10.283,9.377,5.399,7.457,5.998,7.867,14.01,2.558,2.558,12.785,13.259,12.785,13.259,11.987,9.757,11.987,5.551,9.925,5.116,10.739,5.551,9.626,9.756,5.116,11.036,3.924,9.626,10.819,3.595,-0.317,6.067,0.0,0.0,0.0,0,1688144469.4873,2023-06-30 19:01:09,Rest
12,0,0.297,-3.047,-2.928,-2.803,-2.797,-3.742,-1.875,-0.349,-7.179,-7.179,-0.548,1.975,-0.548,1.975,-4.419,-8.184,-4.419,-12.385,-4.942,-8.209,-4.641,-12.385,-2.167,-2.549,-8.209,-0.246,-11.449,-2.167,-1.999,-9.729,-12.1,-5.722,0.0,0.0,0.0,0,1688144469.4951,2023-06-30 19:01:09,Rest
13,0,7.469,7.714,8.858,3.86,7.964,4.971,6.324,10.922,-0.511,-0.511,7.137,8.121,7.137,8.121,1.733,2.583,1.733,-3.151,2.747,2.558,8.684,-3.151,9.106,3.601,2.558,6.927,1.37,9.106,5.175,1.552,4.306,4.017,0.0,0.0,0.0,0,1688144469.5029,2023-06-30 19:01:09,Rest
14,0,23.855,23.076,23.194,18.713,23.326,16.749,19.125,29.867,14.346,14.346,21.987,22.458,21.987,22.458,18.126,13.851,18.126,12.221,20.163,15.363,25.069,12.221,19.855,21.528,15.363,22.289,18.787,19.855,23.101,16.919,18.646,21.944,0.0,0.0,0.0,0,1688144469.5107,2023-06-30 19:01:09,Rest
15,0,17.684,16.393,15.998,16.645,16.13,11.097,13.983,18.054,11.77,11.77,14.792,18.337,14.792,18.337,11.96,2.054,11.96,1.963,10.921,5.614,15.822,1.963,12.151,18.433,5.614,19.193,12.62,12.151,17.954,11.267,10.431,16.799,0.0,0.0,0.0,0,1688144469.5185,2023-06-30 19:01:09,Rest
16,0,1.785,5.106,7.273,3.821,3.306,2.889,5.26,5.74,1.512,1.512,1.97,6.535,1.97,6.535,0.165,-3.583,0.165,-9.822,-1.385,-2.077,4.536,-9.822,5.479,3.557,-2.077,6.878,3.899,5.479,3.592,1.522,3.248,0.901,0.0,0.0,0.0,0,1688144469.5263,2023-06-30 19:01:09,Rest
17,0,10.492,14.322,15.975,9.452,12.012,10.059,14.476,19.567,11.757,11.757,11.19,15.75,11.19,15.75,9.386,12.814,9.386,0.946,10.912,7.659,14.777,0.946,15.719,11.239,7.659,13.019,12.604,15.719,12.298,10.23,13.491,9.097,0.0,0.0,0.0,0,1688144469.5341,2023-06-30 19:01:09,Rest
18,0,27.9,29.677,28.766,26.349,27.369,23.881,25.22,32.355,27.114,27.114,28.084,32.128,28.084,32.128,24.746,25.097,24.746,17.851,25.246,20.972,30.132,17.851,29.536,29.67,20.972,28.375,25.399,29.536,27.654,24.564,27.822,26.506,0.0,0.0,0.0,0,1688144469.5419,2023-06-30 19:01:09,Rest
19,0,36.581,39.381,36.935,33.495,32.977,31.029,33.392,38.47,30.161,30.161,37.278,39.781,37.278,39.781,34.967,28.658,34.967,29.104,35.467,35.295,41.372,29.104,39.752,39.375,35.295,37.056,36.132,39.752,36.848,30.687,35.479,32.627,0.0,0.0,0.0,0,1688144469.5498,2023-06-30 19:01:09,Rest
20,0,44.742,44.977,44.07,36.535,35.506,34.584,42.58,46.629,33.717,33.717,43.388,45.376,43.388,45.376,43.129,37.339,43.129,34.711,45.165,41.92,47.991,34.711,44.323,43.434,41.92,42.655,42.244,44.323,43.984,35.267,38.517,39.255,0.0,0.0,0.0,0,1688144469.5576,2023-06-30 19:01:09,Rest
21,0,33.426,33.149,33.78,29.326,30.86,25.841,29.73,37.361,29.073,29.073,31.562,39.183,31.562,39.183,31.303,36.277,31.303,19.819,29.751,19.337,31.549,19.819,25.836,30.582,19.337,30.829,25.295,25.836,31.132,23.961,23.109,31.531,0.0,0.0,0.0,0,1688144469.5654,2023-06-30 19:01:09,Rest
22,0,1.117,0.841,1.471,4.194,10.336,0.712,-2.576,10.171,5.477,5.477,0.28,15.066,0.28,15.066,-0.491,14.723,-0.491,-12.476,-2.555,-12.958,-0.758,-12.476,-6.465,-1.723,-12.958,-0.965,-7.005,-6.465,-1.174,-8.338,-9.189,-0.776,0.0,4026269991.0,0.0,0,1688144469.5732,2023-06-30 19:01:09,Rest
23,0,-19.888,-22.214,-22.097,-15.79,-8.629,-19.781,-17.942,-7.77,-13.483,-13.483,-22.262,-4.929,-22.262,-4.929,-21.495,-4.759,-21.495,-36.03,-20.995,-30.364,-25.348,-36.03,-26.439,-24.776,-30.364,-20.432,-31.077,-26.439,-22.69,-37.531,-33.771,-25.366,0.0,0.0,0.0,0,1688144469.581,2023-06-30 19:01:09,Rest
24,0,-17.819,-23.729,-25.149,-18.848,-13.231,-21.811,-19.974,-13.398,-18.081,-18.081,-25.826,-12.609,-25.826,-12.609,-25.06,-11.414,-25.06,-37.019,-23.023,-27.772,-23.273,-37.019,-24.363,-25.775,-27.772,-17.85,-28.484,-24.363,-25.741,-34.42,-30.151,-25.341,0.0,0.0,0.0,0,1688144469.5888,2023-06-30 19:01:09,Rest
25,0,-14.215,-19.607,-22.562,-18.829,-12.706,-18.203,-22.003,-14.409,-22.673,-22.673,-22.214,-16.183,-22.214,-16.183,-24.01,-18.575,-24.01,-29.809,-21.976,-23.646,-17.102,-29.809,-20.24,-19.09,-23.646,-13.733,-20.771,-20.24,-20.08,-24.652,-24.998,-23.266,0.0,0.0,0.0,0,1688144469.5966,2023-06-30 19:01:09,Rest
26,0,-11.639,-18.05,-18.953,-19.323,-13.205,-19.721,-18.907,-12.858,-24.188,-24.188,-19.118,-15.654,-19.118,-15.654,-22.449,-26.753,-22.449,-30.804,-22.466,-24.134,-18.11,-30.804,-18.683,-17.534,-24.134,-13.207,-19.214,-18.683,-15.449,-23.602,-23.948,-23.243,0.0,0.0,0.0,0,1688144469.6044,2023-06-30 19:01:09,Rest
27,0,-19.312,-20.594,-20.471,-19.816,-16.778,-26.362,-21.45,-16.431,-26.725,-26.725,-25.759,-20.762,-25.759,-20.762,-29.087,-33.899,-29.087,-41.532,-29.616,-28.721,-24.752,-41.532,-24.812,-26.738,-28.721,-18.317,-22.78,-24.812,-23.118,-25.628,-20.338,-25.269,0.0,0.0,0.0,0,1688144469.6123,2023-06-30 19:01:09,Rest
28,0,-30.564,-25.696,-25.062,-23.895,-18.811,-28.385,-28.088,-22.05,-33.358,-33.358,-32.393,-28.425,-32.393,-28.425,-35.718,-37.964,-35.718,-45.076,-33.685,-29.717,-26.264,-45.076,-30.935,-33.371,-29.717,-25.984,-26.344,-30.935,-30.78,-25.09,-18.781,-29.854,0.0,0.0,0.0,0,1688144469.6201,2023-06-30 19:01:09,Rest
29,0,-16.701,-21.572,-19.913,-18.235,-13.669,-18.11,-16.277,-16.392,-29.226,-29.226,-21.09,-19.175,-21.09,-19.175,-26.461,-27.167,-26.461,-32.736,-23.917,-21.49,-17.016,-32.736,-18.096,-22.579,-21.49,-16.736,-18.121,-18.096,-18.966,-19.43,-16.2,-22.14,0.0,0.0,0.0,0,1688144469.6279,2023-06-30 19:01:09,Rest
30,0,-0.29,-8.23,-10.672,-6.946,-8.532,-9.895,-5.502,-7.154,-17.926,-17.926,-11.335,-5.836,-11.335,-5.836,-13.626,-12.795,-13.626,-21.945,-13.135,-11.222,-6.24,-21.945,-2.709,-10.261,-11.222,-2.887,-4.782,-2.709,-6.652,-11.726,-7.987,-12.896,0.0,0.0,0.0,0,1688144469.6357,2023-06-30 19:01:09,Rest
