COUNTER,INTERPOLATED,Cz,Fz,Fp1,F7,F3,FC1,C3,FC5,FT9,T7,CP5,CP1,P3,P7,PO9,O1,Pz,Oz,O2,PO10,P8,P4,CP2,CP6,T8,FT10,FC6,C4,FC2,F4,F8,Fp2,HighBitFlex,SaturationFlag,RAW_CQ,MARKER_HARDWARE,MARKERS,Human Readable Time,New Label
93,0,-32.51,-28.268,-31.352,-25.673,-27.468,-25.254,-27.922,-29.724,-31.305,-31.305,-26.465,-30.731,-26.465,-30.731,-30.885,-20.992,-30.885,-29.049,-30.917,-27.739,-36.289,-29.049,-29.924,-32.183,-27.739,-22.834,-26.786,-29.924,-27.03,-20.172,-23.666,-35.201,0.0,0.0,0.0,0,1688127061.7191,2023-06-30 14:11:01,Rest
94,0,-11.473,-3.649,-10.828,-6.692,-8.998,-6.273,-6.378,-11.764,-16.417,-16.417,-6.971,-12.258,-6.971,-12.258,-10.874,-6.114,-10.874,-9.552,-8.857,-6.707,-14.223,-9.552,-8.378,-11.146,-6.707,-2.319,-1.657,-8.378,-5.999,0.341,-3.662,-14.161,0.0,0.0,0.0,0,1688127061.7269,2023-06-30 14:11:01,Rest
95,0,-1.728,5.576,0.966,-0.538,-0.792,0.393,-1.248,-0.993,-6.154,-6.154,1.745,-6.098,1.745,-6.098,0.92,2.089,0.92,-0.321,-1.164,2.009,-4.988,-0.321,-2.222,-2.938,2.009,4.856,2.444,-2.222,1.692,7.513,4.026,-4.925,0.0,0.0,0.0,0,1688127061.7347,2023-06-30 14:11:01,Rest
96,0,-0.189,7.107,2.502,2.024,-0.279,0.905,0.802,0.545,-4.611,-4.611,3.792,-4.555,3.792,-4.555,2.456,3.623,2.456,3.266,2.936,4.057,0.141,3.266,1.879,-0.886,4.057,9.974,0.904,1.879,5.789,14.677,5.559,-0.822,4096.0,0.0,0.0,0,1688127061.7425,2023-06-30 14:11:01,Rest
97,0,11.594,19.908,12.746,17.391,10.992,12.175,13.097,12.327,4.103,4.103,16.084,10.307,16.084,10.307,11.163,11.304,11.163,12.484,15.228,14.811,11.923,12.484,13.66,11.923,14.811,20.722,13.711,13.66,18.59,24.909,15.287,13.011,4096.0,0.0,0.0,0,1688127061.7504,2023-06-30 14:11:01,Rest
98,0,19.267,26.548,22.467,21.473,18.154,18.823,16.158,22.049,13.32,13.32,22.728,20.03,22.728,20.03,19.349,17.953,19.349,18.619,16.75,19.919,17.547,18.619,18.257,17.034,19.919,26.337,20.357,18.257,22.67,25.396,19.883,19.146,4096.0,0.0,0.0,0,1688127061.7582,2023-06-30 14:11:01,Rest
99,0,10.027,17.3,13.735,11.205,9.939,11.632,9.482,13.317,8.696,8.696,11.434,10.276,11.434,10.276,11.645,11.275,11.645,14.502,9.049,11.702,9.845,14.502,11.067,5.234,11.702,20.163,11.628,11.067,12.914,18.711,13.203,8.369,4096.0,0.0,0.0,0,1688127061.766,2023-06-30 14:11:01,Rest
100,0,-0.742,7.549,2.45,8.632,3.269,5.985,4.349,4.082,2.028,2.028,4.763,4.118,4.763,4.118,1.899,9.215,1.899,7.828,6.99,5.543,2.663,7.828,3.884,-0.407,5.543,10.921,5.981,3.884,4.704,11.52,6.53,-0.861,4096.0,0.0,0.0,0,1688127061.7738,2023-06-30 14:11:01,Rest
101,0,-5.352,-0.143,-3.7,4.525,0.704,0.343,-2.315,-1.045,-1.561,-1.561,2.197,3.602,2.197,3.602,-3.738,11.767,-3.738,-2.426,-1.214,-3.172,-7.074,-2.426,-6.367,-4.505,-3.172,1.176,-3.247,-6.367,-3.498,-0.787,-5.772,-5.471,4096.0,0.0,0.0,0,1688127061.7816,2023-06-30 14:11:01,Rest
102,0,-18.154,-15.0,-18.553,-12.898,-11.592,-15.539,-15.121,-14.364,-13.854,-13.854,-14.199,-11.771,-14.199,-11.771,-18.591,-1.565,-18.591,-19.842,-20.168,-26.222,-28.584,-19.842,-25.828,-24.48,-26.222,-13.682,-26.297,-25.828,-18.863,-19.742,-26.771,-20.835,4096.0,0.0,0.0,0,1688127061.7894,2023-06-30 14:11:01,Rest
103,0,-29.919,-28.305,-29.293,-23.644,-23.876,-25.257,-26.889,-24.083,-22.55,-22.55,-27.505,-23.542,-27.505,-23.542,-30.868,-15.396,-30.868,-29.044,-29.881,-38.492,-42.9,-29.044,-37.585,-35.214,-38.492,-25.963,-38.566,-37.585,-28.066,-30.993,-37.503,-35.671,3968.0,0.0,0.0,0,1688127061.7972,2023-06-30 14:11:01,Rest
104,0,-27.84,-26.227,-25.165,-20.546,-20.266,-19.596,-27.886,-22.01,-16.892,-16.892,-22.355,-17.883,-22.355,-17.883,-25.202,-11.282,-25.202,-23.38,-24.728,-28.207,-36.197,-23.38,-29.863,-26.982,-28.207,-24.401,-31.356,-29.863,-24.452,-25.326,-32.854,-32.562,3968.0,0.0,0.0,0,1688127061.805,2023-06-30 14:11:01,Rest
105,0,-22.177,-19.029,-19.505,-14.378,-12.049,-14.454,-18.637,-17.889,-12.264,-12.264,-17.209,-15.304,-17.209,-15.304,-20.053,-7.684,-20.053,-18.233,-20.605,-19.469,-26.427,-18.233,-21.636,-23.369,-19.469,-17.716,-23.64,-21.636,-18.792,-15.567,-24.625,-23.307,4096.0,0.0,0.0,0,1688127061.8129,2023-06-30 14:11:01,Rest
106,0,-16.007,-13.375,-14.874,-7.703,-8.963,-10.341,-9.909,-11.211,-11.74,-11.74,-13.606,-13.239,-13.606,-13.239,-19.521,-8.189,-19.521,-16.678,-16.486,-16.376,-22.302,-16.678,-20.078,-20.784,-16.376,-13.088,-13.882,-20.078,-12.625,-5.305,-14.866,-16.624,4096.0,0.0,0.0,0,1688127061.8207,2023-06-30 14:11:01,Rest
107,0,-6.769,-2.603,-6.15,-1.036,-2.806,-1.621,-6.825,-3.003,-1.994,-1.994,-3.346,1.631,-3.346,1.631,-8.743,3.602,-8.743,-7.952,-7.248,-6.626,-12.546,-7.952,-11.348,-8.98,-6.626,-4.365,-2.598,-11.348,-3.391,4.434,-6.142,-8.411,4096.0,0.0,0.0,0,1688127061.8285,2023-06-30 14:11:01,Rest
108,0,-4.201,3.035,-4.095,2.039,2.32,-1.107,-3.232,-1.976,4.156,4.156,0.244,6.24,0.244,6.24,-3.611,13.333,-3.611,-1.284,-2.118,-1.496,-5.361,-1.284,-2.628,-6.922,-1.496,-0.775,-4.644,-2.628,-2.363,2.38,-4.599,-4.816,4096.0,0.0,0.0,0,1688127061.8363,2023-06-30 14:11:01,Rest
109,0,-6.759,-2.091,-5.628,1.013,-0.244,-3.155,-2.205,-4.023,-0.972,-0.972,-2.318,-1.963,-2.318,-1.963,-8.218,6.147,-8.218,-2.82,-3.14,-3.544,-8.429,-2.82,-6.211,-10.501,-3.544,-6.409,-6.176,-6.211,-5.435,-3.77,-4.082,-7.885,4096.0,0.0,0.0,0,1688127061.8441,2023-06-30 14:11:01,Rest
110,0,-4.19,-2.089,-2.548,-4.112,-1.781,1.459,-4.764,-6.581,-5.069,-5.069,1.27,-0.936,1.27,-0.936,-4.624,-0.519,-4.624,0.257,-1.6,-1.491,-6.884,0.257,-6.717,-5.368,-1.491,-4.354,-0.535,-6.717,-2.356,2.382,-4.078,-8.39,4096.0,0.0,0.0,0,1688127061.8519,2023-06-30 14:11:01,Rest
111,0,-4.186,1.499,-3.058,-6.669,-1.779,-2.129,-8.858,-10.672,-7.113,-7.113,0.757,-0.936,0.757,-0.936,-2.57,-1.543,-2.57,1.281,-2.111,-1.49,-5.34,1.281,-2.1,-4.85,-1.49,0.774,-3.096,-2.1,-1.329,5.965,-8.172,-9.406,4096.0,0.0,0.0,0,1688127061.8597,2023-06-30 14:11:01,Rest
112,0,-6.231,-3.113,-6.641,-3.588,-5.363,-8.275,-9.361,-8.612,-9.668,-9.668,-4.367,-7.082,-4.367,-7.082,-8.203,-1.029,-8.203,-4.868,-4.158,-8.148,-11.995,-4.868,-7.221,-9.968,-8.148,-0.764,-8.728,-7.221,-4.401,1.349,-11.238,-13.495,4096.0,0.0,0.0,0,1688127061.8675,2023-06-30 14:11:01,Rest
113,0,-3.663,-2.597,-6.122,-3.585,-5.87,-1.606,-5.766,-3.481,-5.559,-5.559,-1.801,-4.514,-1.801,-4.514,-6.146,3.582,-6.146,-4.863,-2.617,-12.239,-13.52,-4.863,-12.849,-7.909,-12.239,0.261,-5.646,-12.849,-5.934,4.933,-11.739,-11.432,4096.0,0.0,0.0,0,1688127061.8754,2023-06-30 14:11:01,Rest
114,0,-8.27,-4.132,-8.165,-8.192,-3.815,-2.629,-8.834,-7.063,-5.554,-5.554,-2.824,-3.485,-2.824,-3.485,-6.652,2.554,-6.652,-4.858,-6.713,-13.251,-13.506,-4.858,-11.811,-12.0,-13.251,-0.764,-7.689,-11.811,-9.514,3.904,-17.875,-10.908,4096.0,0.0,0.0,0,1688127061.8832,2023-06-30 14:11:01,Rest
115,0,-20.558,-16.423,-18.403,-11.258,-9.959,-14.922,-20.608,-15.253,-15.795,-15.795,-13.067,-13.727,-13.067,-13.727,-19.965,-3.596,-19.965,-17.149,-15.928,-21.435,-26.301,-17.149,-21.021,-25.82,-21.435,-13.57,-20.489,-21.021,-18.214,-9.932,-28.103,-20.631,4096.0,0.0,0.0,0,1688127061.891,2023-06-30 14:11:01,Rest
116,0,-24.635,-19.993,-25.557,-14.32,-16.097,-16.444,-23.661,-18.312,-17.316,-17.316,-19.714,-14.738,-19.714,-14.738,-24.556,-4.105,-24.556,-25.328,-21.547,-30.635,-36.008,-25.328,-34.32,-31.429,-30.635,-20.729,-30.715,-34.32,-23.831,-17.607,-32.686,-26.758,3968.0,0.0,0.0,0,1688127061.8988,2023-06-30 14:11:01,Rest
117,0,-23.074,-15.874,-21.945,-15.843,-14.032,-14.378,-16.977,-17.781,-9.614,-9.614,-20.719,-8.576,-20.719,-8.576,-20.945,-2.051,-20.945,-23.766,-21.013,-31.116,-30.849,-23.766,-30.187,-26.787,-31.116,-18.659,-29.66,-30.187,-23.807,-17.077,-32.141,-26.219,4096.0,0.0,0.0,0,1688127061.9066,2023-06-30 14:11:01,Rest
118,0,-25.612,-20.981,-19.874,-13.266,-14.53,-18.975,-18.497,-16.227,-10.629,-10.629,-21.723,-11.129,-21.723,-11.129,-25.023,-4.611,-25.023,-26.304,-19.968,-24.938,-30.306,-26.304,-25.546,-25.736,-24.938,-22.227,-27.068,-25.546,-22.758,-19.622,-32.109,-28.242,3968.0,0.0,0.0,0,1688127061.9144,2023-06-30 14:11:01,Rest
119,0,-25.074,-21.473,-22.416,-12.74,-15.54,-17.419,-22.577,-14.161,-10.618,-10.618,-19.652,-13.167,-19.652,-13.167,-26.022,-4.094,-26.022,-27.814,-19.948,-20.814,-33.862,-27.814,-30.132,-28.784,-20.814,-25.791,-27.554,-30.132,-22.736,-20.627,-29.515,-27.189,3968.0,0.0,0.0,0,1688127061.9222,2023-06-30 14:11:01,Rest
120,0,-14.803,-10.693,-16.758,-8.116,-6.303,-9.717,-12.821,-7.999,1.688,1.688,-11.436,-2.395,-11.436,-2.395,-14.213,5.644,-14.213,-14.979,-12.243,-13.621,-18.971,-14.979,-17.806,-21.07,-13.621,-17.568,-16.768,-17.806,-15.541,-11.897,-16.166,-15.379,4096.0,0.0,0.0,0,1688127061.93,2023-06-30 14:11:01,Rest
121,0,-2.493,1.101,-0.347,7.261,4.462,1.051,2.561,3.792,13.982,13.982,0.871,12.464,0.871,12.464,0.146,19.471,0.146,-0.107,4.675,1.25,0.516,-0.107,4.241,-2.606,1.25,-3.718,6.303,4.241,-0.668,4.509,1.269,-3.581,4096.0,0.0,0.0,0,1688127061.9379,2023-06-30 14:11:01,Rest
122,0,2.12,9.809,6.825,13.401,4.97,8.735,6.657,9.423,14.992,14.992,6.506,14.501,6.506,14.501,4.756,22.525,4.756,2.455,10.818,8.933,0.515,2.455,4.749,2.519,8.933,0.384,9.371,4.749,5.48,12.189,2.805,-0.503,4096.0,0.0,0.0,0,1688127061.9457,2023-06-30 14:11:01,Rest
123,0,-1.98,5.701,-0.866,6.216,0.354,1.554,-0.01,3.779,6.268,6.268,1.376,3.728,1.376,3.728,-1.909,13.281,-1.909,0.403,3.635,2.264,-5.121,0.403,-4.477,-6.705,2.264,-5.764,-8.57,-4.477,-2.722,1.931,-7.444,-4.089,4096.0,0.0,0.0,0,1688127061.9535,2023-06-30 14:11:01,Rest
124,0,-7.614,-3.526,-4.452,2.623,-1.183,-4.595,-4.108,-0.836,-2.447,-2.447,-2.211,-3.448,-2.211,-3.448,-6.005,6.095,-6.005,1.427,2.607,-2.349,-3.066,1.427,-2.936,-8.235,-2.349,-7.295,-9.586,-2.936,-6.818,-1.657,-8.462,-6.646,4096.0,0.0,0.0,0,1688127061.9613,2023-06-30 14:11:01,Rest
125,0,-9.655,-1.474,-4.447,0.059,-1.182,1.557,-4.104,-4.421,-3.47,-3.47,-2.721,-5.494,-2.721,-5.494,-4.462,1.478,-4.462,-2.16,1.58,-1.322,-6.649,-2.16,-3.958,-8.739,-1.322,-2.165,0.67,-3.958,-3.225,5.517,-6.916,-7.152,4096.0,0.0,0.0,0,1688127061.9691,2023-06-30 14:11:01,Rest
126,0,-9.646,1.602,-9.053,-1.478,-0.669,0.018,-4.1,-8.003,1.657,1.657,-6.305,-6.001,-6.305,-6.001,-8.044,-0.572,-8.044,-7.281,-8.156,-3.882,-13.303,-7.281,-10.614,-12.316,-3.882,-2.675,-3.941,-10.614,-3.734,1.925,-11.52,-7.145,3968.0,0.0,0.0,0,1688127061.9769,2023-06-30 14:11:01,Rest
127,0,-0.414,5.699,-0.847,9.794,5.992,0.531,2.564,2.251,10.364,10.364,0.874,4.764,0.874,4.764,-2.913,9.162,-2.913,-0.102,-0.975,-1.829,-3.556,-0.102,-2.918,-0.521,-1.829,0.914,-3.425,-2.918,0.88,3.972,-7.41,-0.478,4096.0,0.0,0.0,0,1688127061.9847,2023-06-30 14:11:01,Rest
0,0,11.881,14.914,13.498,16.957,12.134,11.801,10.759,14.544,16.502,16.502,13.168,12.956,13.168,12.956,9.898,18.887,9.898,8.095,11.833,4.833,6.182,8.095,8.355,10.238,4.833,13.721,8.361,8.355,10.613,17.801,1.819,7.72,0.0,0.0,0.0,0,1688127061.9925,2023-06-30 14:11:01,Rest
1,0,2.136,8.239,1.701,3.62,3.925,6.666,-0.011,3.259,4.19,4.19,3.421,1.16,3.421,1.16,-0.358,8.11,-0.358,-4.208,0.551,-3.881,-6.632,-4.208,-3.436,-5.654,-3.881,7.559,0.669,-3.436,1.381,7.537,-6.38,0.027,0.0,0.0,0.0,0,1688127062.0004,2023-06-30 14:11:02,Rest
2,0,-16.822,-9.187,-15.719,-8.167,-6.838,-9.222,-14.868,-11.089,-8.622,-8.622,-12.976,-7.55,-12.976,-7.55,-17.264,-0.096,-17.264,-17.012,-12.77,-17.71,-18.921,-17.012,-20.851,-18.456,-17.71,-10.379,-16.751,-20.851,-13.477,-8.865,-19.181,-14.83,0.0,0.0,0.0,0,1688127062.0082,2023-06-30 14:11:02,Rest
3,0,-7.071,-0.469,-3.408,4.137,2.903,-2.041,-2.557,3.779,6.244,6.244,-2.205,6.289,-2.205,6.289,-4.439,15.274,-4.439,-3.162,1.075,-4.372,-5.582,-3.162,-8.023,-5.63,-4.372,0.39,-8.025,-8.023,-2.193,7.026,-7.379,-7.642,0.0,0.0,0.0,0,1688127062.016,2023-06-30 14:11:02,Rest
4,0,17.014,21.561,17.088,23.088,18.269,17.941,17.938,24.78,29.291,29.291,17.778,22.677,17.778,22.677,15.033,29.603,15.033,17.845,19.005,19.711,14.916,17.845,16.576,11.794,19.711,22.419,13.5,16.576,17.277,24.949,14.658,13.37,0.0,0.0,0.0,0,1688127062.0238,2023-06-30 14:11:02,Rest
5,0,17.51,24.613,18.096,24.602,20.3,23.559,18.944,25.78,30.799,30.799,21.858,27.265,21.858,27.265,16.555,27.524,16.555,19.364,21.548,22.765,21.049,19.364,20.658,16.393,22.765,20.347,21.171,20.658,18.797,23.9,18.742,17.967,0.0,0.0,0.0,0,1688127062.0316,2023-06-30 14:11:02,Rest
6,0,13.906,23.052,20.639,21.503,23.354,21.486,17.901,25.754,27.694,27.694,21.324,29.799,21.324,29.799,19.1,31.083,19.1,19.857,21.526,21.717,23.589,19.857,20.637,16.377,21.717,18.79,25.249,20.637,19.803,30.536,17.698,14.875,0.0,0.0,0.0,0,1688127062.0394,2023-06-30 14:11:02,Rest
7,0,31.823,37.373,34.963,36.851,35.114,31.711,32.227,39.561,38.937,38.937,34.11,38.479,34.11,38.479,32.913,46.933,32.913,37.256,36.361,39.626,39.447,37.256,38.548,28.144,39.626,36.189,39.568,38.548,35.664,46.899,33.562,28.18,0.0,0.0,0.0,0,1688127062.0472,2023-06-30 14:11:02,Rest
8,0,44.599,48.607,44.15,48.597,39.689,45.511,43.466,49.255,48.632,48.632,48.421,49.199,48.421,49.199,44.151,55.596,44.151,51.563,52.207,53.931,53.24,51.563,51.317,42.46,53.931,41.789,49.775,51.317,46.387,52.488,48.385,41.472,0.0,0.0,0.0,0,1688127062.055,2023-06-30 14:11:02,Rest
9,0,36.357,42.923,37.446,36.766,34.014,39.318,37.787,41.521,41.411,41.411,43.249,46.588,43.249,46.588,38.984,51.442,38.984,46.389,48.056,46.705,46.527,46.389,41.531,37.295,46.705,28.939,41.016,41.531,39.168,44.238,40.14,33.746,0.0,0.0,0.0,0,1688127062.0629,2023-06-30 14:11:02,Rest
10,0,32.735,36.22,32.285,30.581,28.345,29.033,31.089,33.283,30.099,30.099,35.522,35.783,35.522,35.783,33.309,47.292,33.309,40.707,39.299,37.437,38.796,40.707,33.805,30.597,37.437,26.861,32.265,33.805,31.957,37.534,29.854,27.052,0.0,0.0,0.0,0,1688127062.0707,2023-06-30 14:11:02,Rest
11,0,37.825,41.307,37.888,36.698,28.829,36.688,34.132,35.811,31.094,31.094,41.634,35.235,41.634,35.235,38.399,47.757,38.399,45.789,43.358,37.4,44.905,45.789,38.382,36.714,37.4,34.519,38.893,38.382,36.023,41.083,32.385,32.148,0.0,0.0,0.0,0,1688127062.0785,2023-06-30 14:11:02,Rest
12,0,29.59,38.704,32.215,28.465,26.238,34.09,27.438,31.164,29.013,29.013,34.932,32.638,34.932,32.638,31.701,40.537,31.701,37.034,37.167,28.653,34.614,37.034,29.635,28.993,28.653,27.312,32.194,29.635,32.401,35.406,23.644,25.969,0.0,0.0,0.0,0,1688127062.0863,2023-06-30 14:11:02,Rest
13,0,14.704,20.222,12.203,15.629,14.941,14.588,11.017,16.788,15.664,15.664,14.405,17.236,14.405,17.236,13.226,26.152,13.226,13.431,17.15,11.206,9.476,13.431,10.65,10.521,11.206,12.94,8.084,10.65,15.463,17.952,4.152,9.549,0.0,0.0,0.0,0,1688127062.0941,2023-06-30 14:11:02,Rest
14,0,12.64,15.591,10.141,15.613,10.316,11.5,11.006,15.747,12.062,12.062,13.878,13.633,13.878,13.633,12.701,22.539,12.701,7.27,14.571,8.121,9.466,7.27,9.614,11.535,8.121,13.439,6.539,9.614,11.861,19.984,4.661,7.49,0.0,0.0,0.0,0,1688127062.1019,2023-06-30 14:11:02,Rest
15,0,15.701,22.748,19.353,14.573,13.891,17.124,16.63,20.854,17.686,17.686,19.5,19.767,19.5,19.767,16.786,22.517,16.786,14.435,18.655,13.236,17.654,14.435,15.752,15.11,13.236,19.061,18.827,15.752,17.485,27.648,10.291,11.581,0.0,0.0,0.0,0,1688127062.1097,2023-06-30 14:11:02,Rest
16,0,6.976,14.528,9.087,8.923,9.779,9.934,5.343,10.587,12.033,12.033,8.722,11.038,8.722,11.038,4.474,13.785,4.474,6.224,6.853,8.099,3.292,6.224,6.003,4.336,8.099,10.333,6.001,6.003,9.782,13.788,-1.502,4.397,0.0,0.0,0.0,0,1688127062.1175,2023-06-30 14:11:02,Rest
17,0,-2.765,5.292,-0.656,6.352,4.134,5.314,-1.835,4.941,7.41,7.41,3.078,4.367,3.078,4.367,-0.653,10.697,-0.653,-4.541,1.723,1.944,-3.372,-4.541,-3.225,0.746,1.944,3.15,-5.276,-3.225,2.088,4.553,-7.136,-1.755,0.0,0.0,0.0,0,1688127062.1254,2023-06-30 14:11:02,Rest
18,0,3.386,12.971,7.029,6.858,8.228,8.894,6.876,14.67,15.087,15.087,10.247,15.121,10.247,15.121,5.495,18.371,5.495,2.636,9.406,2.966,6.878,2.636,3.439,4.843,2.966,10.832,6.513,3.439,7.721,12.745,1.58,2.858,0.0,0.0,0.0,0,1688127062.1332,2023-06-30 14:11:02,Rest
19,0,9.018,14.495,8.559,10.95,9.757,7.349,9.431,13.631,16.097,16.097,9.724,16.643,9.724,16.643,2.928,17.841,2.928,6.732,7.86,2.451,2.772,6.732,6.509,2.789,2.451,15.944,10.604,6.509,7.714,11.708,1.579,3.367,0.0,0.0,0.0,0,1688127062.141,2023-06-30 14:11:02,Rest
20,0,3.886,10.895,4.965,10.427,8.723,7.854,6.347,7.982,13.007,13.007,6.641,8.942,6.641,8.942,1.9,12.7,1.9,0.577,5.803,5.522,0.72,0.577,2.916,1.25,5.522,14.391,5.471,2.916,6.169,9.647,-0.472,0.802,0.0,0.0,0.0,0,1688127062.1488,2023-06-30 14:11:02,Rest
21,0,11.566,22.667,16.743,12.465,17.935,16.043,17.612,20.269,21.703,21.703,16.88,19.691,16.88,19.691,16.755,23.958,16.755,11.847,18.604,20.374,21.212,11.847,14.696,13.031,20.374,24.111,14.175,14.696,18.971,22.957,13.361,12.072,0.0,0.0,0.0,0,1688127062.1566,2023-06-30 14:11:02,Rest
22,0,33.584,38.013,32.095,27.822,29.701,27.81,33.476,33.569,30.39,30.39,35.306,37.09,35.306,37.09,31.596,45.451,31.596,37.451,36.004,35.21,38.097,37.451,33.125,29.925,35.21,37.407,30.042,33.125,33.296,35.23,28.204,29.478,0.0,0.0,0.0,0,1688127062.1644,2023-06-30 14:11:02,Rest
23,0,35.087,38.488,34.112,32.405,29.159,33.93,32.418,30.974,29.848,29.848,40.394,35.516,40.394,35.516,33.613,50.016,33.613,41.512,40.579,34.663,34.473,41.512,33.092,31.944,34.663,36.345,33.598,33.092,33.775,32.633,26.127,28.937,0.0,0.0,0.0,0,1688127062.1722,2023-06-30 14:11:02,Rest
24,0,19.683,30.252,24.344,15.979,18.883,24.162,18.041,22.746,20.084,20.084,26.009,21.136,26.009,21.136,23.846,33.06,23.846,22.515,27.219,19.771,22.655,22.515,20.251,16.543,19.771,25.55,21.781,20.251,22.983,22.867,12.781,15.588,0.0,0.0,0.0,0,1688127062.18,2023-06-30 14:11:02,Rest
25,0,15.565,23.562,15.098,11.352,12.204,14.404,12.387,16.063,8.793,8.793,16.249,14.967,16.249,14.967,13.576,22.781,13.576,13.271,13.871,7.968,13.411,13.271,13.058,10.891,7.968,20.401,9.976,13.058,15.275,18.233,4.059,9.937,0.0,0.0,0.0,0,1688127062.1879,2023-06-30 14:11:02,Rest
26,0,19.648,26.1,18.157,21.075,16.803,21.049,19.035,17.584,13.907,13.907,21.868,20.587,21.868,20.587,16.636,28.393,16.636,19.918,20.005,12.571,16.471,19.918,14.07,17.54,12.571,23.967,14.065,14.07,19.871,22.313,9.69,17.099,0.0,0.0,0.0,0,1688127062.1957,2023-06-30 14:11:02,Rest
27,0,21.165,33.758,28.898,24.127,23.446,27.688,23.627,25.764,26.701,26.701,25.945,26.202,25.945,26.202,23.792,32.976,23.792,23.996,28.694,19.731,23.627,23.996,19.691,19.059,19.731,30.603,19.174,19.691,27.536,27.926,16.853,25.279,0.0,0.0,0.0,0,1688127062.2035,2023-06-30 14:11:02,Rest
28,0,20.632,28.602,25.282,23.079,21.373,21.513,22.066,25.738,25.138,25.138,21.308,24.639,21.308,24.639,19.669,30.893,19.669,18.849,18.932,15.1,16.944,18.849,19.159,16.479,15.1,27.498,11.982,19.159,22.897,23.8,12.737,20.131,0.0,0.0,0.0,0,1688127062.2113,2023-06-30 14:11:02,Rest
29,0,8.316,14.228,8.351,15.883,11.618,11.245,12.822,15.978,12.305,12.305,12.578,15.393,12.578,15.393,6.842,23.69,6.842,4.486,5.593,4.839,3.094,4.486,4.283,6.728,4.839,11.077,3.774,4.283,8.53,8.919,1.454,5.766,0.0,0.0,0.0,0,1688127062.2191,2023-06-30 14:11:02,Rest
30,0,-4.501,8.066,0.658,5.109,6.484,3.037,3.076,10.327,6.657,6.657,2.831,9.23,2.831,9.23,-2.899,15.47,-2.899,-4.74,4.05,1.248,-1.007,-4.74,-3.918,-5.574,1.248,0.82,1.208,-3.918,1.349,-2.36,-3.671,-0.9,0.0,0.0,0.0,0,1688127062.2269,2023-06-30 14:11:02,Rest
31,0,4.726,12.669,9.879,11.251,12.625,8.669,8.196,15.952,10.237,10.237,6.927,14.343,6.927,14.343,2.227,22.626,2.227,6.535,9.682,7.907,8.728,6.535,7.869,1.092,7.907,10.553,5.818,7.869,8.008,4.814,3.505,6.273,0.0,0.0,0.0,0,1688127062.2347,2023-06-30 14:11:02,Rest
32,0,12.405,16.755,16.017,18.413,18.247,19.419,16.384,21.571,15.862,15.862,17.679,19.452,17.679,19.452,10.934,30.288,10.934,12.676,12.234,11.997,13.842,12.676,11.96,12.361,11.997,17.202,12.472,11.96,14.147,15.056,10.162,9.853,4096.0,0.0,0.0,0,1688127062.2425,2023-06-30 14:11:02,Rest
33,0,0.61,11.615,7.292,7.123,6.958,11.715,6.634,10.791,10.723,10.723,9.976,11.236,9.976,11.236,5.288,14.377,5.288,-0.144,6.074,4.301,3.07,-0.144,0.677,2.103,4.301,6.939,8.873,0.677,6.961,8.38,6.053,2.159,4096.0,0.0,0.0,0,1688127062.2504,2023-06-30 14:11:02,Rest
34,0,2.659,11.091,6.26,7.116,1.828,5.556,5.091,6.17,7.126,7.126,6.892,9.688,6.892,9.688,3.746,12.825,3.746,5.492,8.629,6.858,5.116,5.492,8.361,1.589,6.858,8.469,8.865,8.361,6.954,6.835,7.584,1.644,4096.0,0.0,0.0,0,1688127062.2582,2023-06-30 14:11:02,Rest
35,0,24.685,29.523,26.233,26.064,22.319,24.506,26.09,26.656,21.976,21.976,29.939,26.584,29.939,26.584,24.747,42.526,24.747,32.638,29.625,28.88,32.263,32.638,32.943,25.665,28.88,31.514,27.811,32.943,26.415,25.784,25.507,17.524,4096.0,0.0,0.0,0,1688127062.266,2023-06-30 14:11:02,Rest
36,0,31.32,41.789,37.478,32.186,32.543,33.703,32.724,36.363,30.663,30.663,41.18,34.755,41.18,34.755,35.993,48.119,35.993,36.704,40.354,38.073,41.452,36.704,35.472,32.812,38.073,41.729,33.931,35.472,37.147,33.443,36.753,27.753,4096.0,0.0,0.0,0,1688127062.2738,2023-06-30 14:11:02,Rest
37,0,22.068,31.501,26.17,23.957,16.629,20.861,19.884,21.982,17.825,17.825,26.282,23.449,26.282,23.449,23.661,25.017,23.661,22.835,25.969,25.74,23.48,22.835,20.579,18.947,25.74,30.416,18.528,20.579,26.863,22.651,28.007,24.139,4096.0,0.0,0.0,0,1688127062.2816,2023-06-30 14:11:02,Rest
38,0,16.922,22.248,18.459,19.835,10.977,18.279,16.79,17.862,9.61,9.61,18.571,14.716,18.571,14.716,15.441,17.82,15.441,16.665,14.672,14.443,13.21,16.665,16.46,14.317,14.443,25.263,12.362,16.46,19.152,16.993,17.732,17.455,4096.0,0.0,0.0,0,1688127062.2894,2023-06-30 14:11:02,Rest
39,0,11.27,21.201,16.903,17.766,16.089,18.261,14.724,20.918,9.088,9.088,15.991,10.603,15.991,10.603,11.327,16.265,11.327,6.402,11.584,5.207,8.586,6.402,10.809,9.692,5.207,25.238,8.251,10.809,12.985,12.877,13.616,12.314,4096.0,0.0,0.0,0,1688127062.2972,2023-06-30 14:11:02,Rest
40,0,-0.524,8.885,2.542,9.551,6.851,2.361,-0.148,10.651,0.882,0.882,1.118,1.371,1.118,1.371,-4.566,4.978,-4.566,-10.511,-2.772,-11.192,-8.328,-10.511,-9.695,-7.736,-11.192,10.356,-10.201,-9.695,-3.422,-4.042,3.869,3.593,4096.0,0.0,0.0,0,1688127062.305,2023-06-30 14:11:02,Rest
41,0,-17.942,-8.543,-13.854,-3.779,-6.988,-8.912,-11.931,-4.729,-8.853,-8.853,-15.277,-7.34,-15.277,-7.34,-21.98,0.875,-21.98,-22.796,-21.725,-28.599,-29.325,-22.796,-28.64,-26.171,-28.599,-10.659,-28.121,-28.64,-19.3,-24.53,-13.554,-11.268,4096.0,0.0,0.0,0,1688127062.3129,2023-06-30 14:11:02,Rest
42,0,-31.244,-16.731,-22.55,-13.509,-12.104,-14.027,-19.091,-13.434,-13.455,-13.455,-23.458,-12.455,-23.458,-12.455,-29.643,-0.151,-29.643,-33.531,-28.363,-39.329,-41.591,-33.531,-33.735,-34.854,-39.329,-21.407,-36.29,-33.735,-27.99,-36.801,-25.835,-24.577,4096.0,0.0,0.0,0,1688127062.3207,2023-06-30 14:11:02,Rest
43,0,-24.553,-14.665,-20.478,-9.909,-11.58,-18.111,-18.56,-11.371,-11.392,-11.392,-19.849,-9.881,-19.849,-9.881,-24.49,0.874,-24.49,-29.399,-21.163,-29.044,-32.84,-29.399,-26.016,-28.16,-29.044,-16.775,-30.618,-26.016,-24.376,-30.104,-15.563,-20.454,4096.0,0.0,0.0,0,1688127062.3285,2023-06-30 14:11:02,Rest
44,0,-4.548,1.231,-2.014,3.421,0.215,-3.236,-1.123,4.522,-0.622,-0.622,-3.435,1.912,-3.435,1.912,-6.535,11.632,-6.535,-4.779,-2.186,-1.35,-4.63,-4.779,-5.498,-10.201,-1.35,0.66,-7.022,-5.498,-4.371,-7.533,11.605,-4.039,4096.0,0.0,0.0,0,1688127062.3363,2023-06-30 14:11:02,Rest
45,0,7.752,19.161,15.918,14.688,14.559,16.747,12.199,19.374,11.162,11.162,10.401,10.107,10.401,10.107,7.817,19.304,7.817,9.57,12.673,15.045,12.281,9.57,10.901,4.666,15.045,14.492,13.478,10.901,12.539,8.869,29.524,7.748,4096.0,0.0,0.0,0,1688127062.3441,2023-06-30 14:11:02,Rest
46,0,12.867,22.215,17.952,21.333,19.156,18.78,13.723,22.941,16.786,16.786,17.05,15.732,17.05,15.732,12.419,22.359,12.419,10.073,15.734,14.006,13.293,10.073,14.477,12.346,14.006,18.576,19.1,14.477,16.625,12.446,33.08,15.425,4096.0,0.0,0.0,0,1688127062.3519,2023-06-30 14:11:02,Rest
47,0,19.514,22.705,19.983,23.361,21.186,20.81,20.37,21.893,20.867,20.867,25.23,24.425,25.23,24.425,18.555,32.071,18.555,18.772,20.841,18.602,19.428,18.772,17.024,17.457,18.602,24.705,23.179,17.024,21.732,15.508,37.146,20.02,4096.0,0.0,0.0,0,1688127062.3597,2023-06-30 14:11:02,Rest
48,0,19.494,28.83,24.574,22.313,21.677,24.376,22.911,21.359,22.896,22.896,27.766,21.839,27.766,21.839,22.635,37.162,22.635,24.901,26.456,25.244,24.019,24.901,20.08,17.952,25.244,27.242,21.619,20.08,23.759,14.467,39.158,17.951,4096.0,0.0,0.0,0,1688127062.3675,2023-06-30 14:11:02,Rest
49,0,15.377,25.728,18.401,19.73,16.02,16.667,13.666,21.338,16.213,16.213,21.591,13.108,21.591,13.108,15.952,28.415,15.952,15.655,18.745,17.534,14.773,15.655,14.937,14.348,17.534,21.067,11.863,14.937,15.026,8.818,30.409,13.834,4096.0,0.0,0.0,0,1688127062.3754,2023-06-30 14:11:02,Rest
50,0,14.337,16.993,12.748,15.099,12.418,12.551,11.603,17.218,7.487,7.487,18.496,11.558,18.496,11.558,12.862,18.141,12.862,8.979,11.042,6.758,9.123,8.979,9.799,10.747,6.758,21.046,8.778,9.799,11.425,9.833,23.207,12.796,4096.0,0.0,0.0,0,1688127062.3832,2023-06-30 14:11:02,Rest
51,0,15.859,21.074,18.883,14.572,13.942,17.15,17.739,15.152,8.505,8.505,21.039,12.571,21.039,12.571,16.436,17.098,16.436,13.068,15.641,9.825,15.774,13.068,12.351,12.274,9.825,27.172,14.917,12.351,18.073,16.996,27.282,15.857,4096.0,0.0,0.0,0,1688127062.391,2023-06-30 14:11:02,Rest
52,0,25.065,33.348,29.11,26.34,20.588,24.305,24.382,27.432,21.816,21.816,28.702,19.731,28.702,19.731,24.616,30.401,24.616,22.277,25.872,23.648,24.467,22.277,21.56,24.557,23.648,34.83,23.099,21.56,28.302,27.225,38.013,26.087,4096.0,0.0,0.0,0,1688127062.3988,2023-06-30 14:11:02,Rest
53,0,39.384,43.561,39.839,39.121,32.863,35.039,35.116,43.798,35.627,35.627,40.969,36.618,40.969,36.618,36.887,43.178,36.887,31.989,36.604,34.382,36.226,31.989,34.346,37.34,34.382,48.115,32.297,34.346,39.032,40.518,48.734,38.869,4096.0,0.0,0.0,0,1688127062.4066,2023-06-30 14:11:02,Rest
54,0,40.37,47.616,44.922,40.619,36.416,39.102,38.667,45.291,38.665,38.665,44.514,39.142,44.514,39.142,39.924,36.475,39.924,36.567,39.642,36.91,41.825,36.567,39.947,35.766,36.91,54.727,35.339,39.947,41.554,43.039,53.296,40.879,4096.0,0.0,0.0,0,1688127062.4144,2023-06-30 14:11:02,Rest
55,0,28.034,41.933,33.607,33.406,27.671,28.817,28.894,36.537,29.405,29.405,33.199,24.246,33.199,24.246,27.588,26.705,27.588,27.309,28.844,28.676,28.976,27.309,27.612,25.996,28.676,45.451,27.106,27.612,31.779,29.163,44.021,30.592,4096.0,0.0,0.0,0,1688127062.4222,2023-06-30 14:11:02,Rest
56,0,16.735,27.547,18.204,22.102,20.471,19.055,18.107,25.229,16.567,16.567,18.309,14.488,18.309,14.488,14.753,25.653,14.753,9.351,14.47,13.278,11.528,9.351,9.654,15.211,13.278,33.622,13.247,9.654,19.452,16.327,28.095,17.754,4096.0,0.0,0.0,0,1688127062.43,2023-06-30 14:11:02,Rest
57,0,1.861,10.613,6.915,9.272,11.229,7.765,5.793,10.347,5.28,5.28,4.458,5.765,4.458,5.765,1.418,13.844,1.418,-7.564,1.136,-1.592,-3.852,-7.564,-2.139,-0.173,-1.592,18.732,-1.111,-2.139,4.063,5.552,15.259,5.953,4096.0,0.0,0.0,0,1688127062.4379,2023-06-30 14:11:02,Rest
58,0,-12.997,-1.181,-2.314,1.578,-1.59,-5.563,-5.483,-0.934,-3.434,-3.434,-5.28,-6.024,-5.28,-6.024,-12.928,-0.002,-12.928,-14.729,-10.649,-10.3,-15.119,-14.729,-10.846,-10.931,-10.3,-1.267,-8.282,-10.846,-10.798,-7.774,8.584,-3.787,4096.0,0.0,0.0,0,1688127062.4457,2023-06-30 14:11:02,Rest
59,0,-10.423,2.407,-0.774,3.626,-0.052,-2.484,-2.404,0.092,-2.406,-2.406,-3.738,-2.944,-3.738,-2.944,-11.89,8.195,-11.89,-9.591,-4.49,-5.167,-8.957,-9.591,-8.786,-7.334,-5.167,-2.291,-1.614,-8.786,-6.689,-7.766,12.162,-6.344,4096.0,0.0,0.0,0,1688127062.4535,2023-06-30 14:11:02,Rest
60,0,2.908,13.163,9.473,10.795,10.707,9.814,8.869,8.289,6.818,6.818,7.024,9.866,7.024,9.866,2.979,22.019,2.979,2.714,10.883,9.695,6.422,2.714,4.543,2.407,9.695,12.056,7.609,4.543,7.15,3.513,22.396,2.371,4096.0,0.0,0.0,0,1688127062.4613,2023-06-30 14:11:02,Rest
61,0,5.466,13.149,11.512,13.346,10.696,9.804,11.422,11.866,7.835,7.835,12.14,10.881,12.14,10.881,6.05,19.948,6.05,6.809,10.36,12.76,6.415,6.809,9.149,4.454,12.76,12.557,6.065,9.149,7.143,4.021,25.447,9.029,4096.0,0.0,0.0,0,1688127062.4691,2023-06-30 14:11:02,Rest
62,0,-0.175,11.599,8.427,11.795,5.05,6.208,6.8,8.268,1.68,1.68,8.03,2.673,8.03,2.673,-0.104,10.194,-0.104,2.192,4.715,4.55,0.261,2.192,1.967,2.4,4.55,7.421,2.985,1.967,3.55,-2.643,18.762,4.921,4096.0,0.0,0.0,0,1688127062.4769,2023-06-30 14:11:02,Rest
63,0,1.875,14.662,10.468,10.247,7.094,8.764,5.256,4.674,3.727,3.727,7.509,3.183,7.509,3.183,2.457,8.647,2.457,3.727,7.784,6.595,3.335,3.727,2.478,3.935,6.595,13.049,5.031,2.478,7.132,-1.615,17.206,3.379,4096.0,0.0,0.0,0,1688127062.4847,2023-06-30 14:11:02,Rest
64,0,5.459,11.573,7.896,7.675,7.087,8.243,5.763,5.182,2.187,2.187,11.6,5.741,11.6,5.741,5.017,13.762,5.017,4.235,7.264,8.637,1.794,4.235,4.525,2.906,8.637,11.499,1.44,4.525,3.539,-0.077,17.701,4.913,0.0,0.0,0.0,0,1688127062.4925,2023-06-30 14:11:02,Rest
65,0,0.843,5.414,1.74,2.544,1.957,3.624,1.147,2.615,-7.549,-7.549,5.953,0.1,5.953,0.1,-3.185,7.6,-3.185,-4.478,1.109,-1.105,-5.38,-4.478,-2.652,-5.294,-1.105,4.315,-3.172,-2.652,-2.1,-3.663,12.048,-0.727,0.0,0.0,0.0,0,1688127062.5004,2023-06-30 14:11:02,Rest
66,0,-3.769,6.945,2.251,3.054,1.443,2.083,-3.465,-0.462,-7.029,-7.029,-2.762,-5.535,-2.762,-5.535,-7.281,-6.24,-7.281,-9.085,-2.991,-2.129,-6.911,-9.085,-4.699,-7.338,-2.129,7.897,-0.095,-4.699,1.488,-6.221,10.499,-3.288,0.0,0.0,0.0,0,1688127062.5082,2023-06-30 14:11:02,Rest
67,0,-0.691,7.963,3.785,7.662,7.589,4.13,-0.388,2.1,-0.362,-0.362,-0.71,-2.968,-0.71,-2.968,-4.712,-6.746,-4.712,-8.563,-5.037,5.046,-6.392,-8.563,-1.108,-3.232,5.046,11.475,0.417,-1.108,0.462,-6.727,13.562,3.375,0.0,0.0,0.0,0,1688127062.516,2023-06-30 14:11:02,Rest
68,0,-0.178,4.881,2.757,6.117,6.044,5.151,2.174,3.123,-1.387,-1.387,1.852,0.621,1.852,0.621,-5.732,2.482,-5.732,-10.604,-4.52,-0.595,-7.923,-10.604,-5.718,-4.766,-0.595,8.902,-5.731,-5.718,-4.149,-9.282,8.938,2.347,0.0,0.0,0.0,0,1688127062.5238,2023-06-30 14:11:02,Rest
69,0,-3.764,4.364,2.242,3.037,0.403,2.584,-1.414,-0.466,0.152,0.152,-2.248,1.132,-2.248,1.132,-9.312,4.017,-9.312,-9.569,-4.003,-7.766,-8.939,-9.569,-10.323,-8.859,-7.766,6.844,-8.287,-10.323,-3.632,-14.396,3.294,-6.877,0.0,0.0,0.0,0,1688127062.5316,2023-06-30 14:11:02,Rest
70,0,-11.445,-0.763,-2.883,0.985,-0.622,-3.054,-6.536,-2.515,0.152,0.152,-7.881,-1.943,-7.881,-1.943,-12.889,2.476,-12.889,-11.608,-7.073,-9.296,-16.615,-11.608,-11.337,-11.412,-9.296,-2.384,-12.377,-11.337,-10.289,-22.578,0.217,-10.456,0.0,0.0,0.0,0,1688127062.5394,2023-06-30 14:11:02,Rest
71,0,-22.192,-11.009,-11.59,-5.676,-3.183,-8.174,-12.677,-6.099,-9.07,-9.07,-14.533,-8.088,-14.533,-8.088,-19.536,1.961,-19.536,-23.38,-12.189,-16.971,-24.795,-23.38,-20.035,-20.11,-16.971,-13.14,-24.148,-20.035,-20.012,-31.265,-7.468,-12.495,0.0,0.0,0.0,0,1688127062.5472,2023-06-30 14:11:02,Rest
72,0,-21.145,-12.022,-15.164,-8.744,-8.303,-11.24,-14.714,-11.216,-11.623,-11.623,-16.056,-8.592,-16.056,-8.592,-22.078,0.935,-22.078,-25.406,-16.787,-21.565,-25.795,-25.406,-24.113,-25.213,-21.565,-10.566,-26.685,-24.113,-17.943,-34.307,-13.096,-17.605,0.0,0.0,0.0,0,1688127062.555,2023-06-30 14:11:02,Rest
73,0,-16.001,-10.473,-14.124,-6.686,-9.319,-12.253,-14.187,-11.204,-8.537,-8.537,-11.941,-6.535,-11.941,-6.535,-20.007,0.421,-20.007,-19.233,-19.332,-18.982,-26.794,-19.233,-17.429,-20.064,-18.982,-11.58,-19.486,-17.429,-16.388,-30.687,-12.058,-21.686,0.0,0.0,0.0,0,1688127062.5629,2023-06-30 14:11:02,Rest
74,0,-24.182,-17.123,-17.696,-12.827,-11.359,-13.778,-17.759,-14.267,-16.726,-16.726,-15.515,-13.188,-15.515,-13.188,-24.085,-3.165,-24.085,-23.312,-17.776,-20.5,-31.378,-23.312,-19.461,-22.094,-20.5,-21.814,-21.003,-19.461,-23.032,-29.632,-14.096,-25.251,0.0,0.0,0.0,0,1688127062.5707,2023-06-30 14:11:02,Rest
75,0,-23.645,-14.544,-16.654,-15.376,-11.86,-12.227,-18.765,-17.327,-19.27,-19.27,-18.574,-14.2,-18.574,-14.2,-21.5,-5.724,-21.5,-21.752,-13.66,-17.405,-26.223,-21.752,-22.003,-26.17,-17.405,-19.743,-21.495,-22.003,-20.447,-29.602,-14.081,-22.664,0.0,0.0,0.0,0,1688127062.5785,2023-06-30 14:11:02,Rest
76,0,-6.716,-0.697,-5.367,-2.553,-3.651,-5.042,-6.964,-6.551,-4.906,-4.906,-5.748,-4.452,-5.748,-4.452,-8.67,-2.132,-8.67,-9.947,-9.035,-8.166,-14.414,-9.947,-9.686,-14.361,-8.166,-5.891,-11.227,-9.686,-8.131,-19.838,-4.334,-9.834,0.0,0.0,0.0,0,1688127062.5863,2023-06-30 14:11:02,Rest
77,0,-4.147,2.889,0.786,4.109,0.963,-0.939,-1.321,3.702,-1.315,-1.315,0.918,-5.984,0.918,-5.984,-7.637,-6.74,-7.637,-11.474,-8.002,-11.744,-11.326,-11.474,-4.553,-6.149,-11.744,-1.275,-8.654,-4.553,-4.537,-12.134,0.282,-2.651,0.0,0.0,0.0,0,1688127062.5941,2023-06-30 14:11:02,Rest
78,0,-12.34,-1.212,-4.338,-1.018,-1.599,-4.524,-9.005,-1.937,-7.462,-7.462,-6.767,-13.15,-6.767,-13.15,-15.826,-13.394,-15.826,-18.635,-14.141,-17.88,-16.438,-18.635,-12.233,-14.852,-17.88,-6.909,-16.33,-12.233,-9.143,-18.782,-6.379,-8.796,0.0,0.0,0.0,0,1688127062.6019,2023-06-30 14:11:02,Rest
79,0,-12.328,-4.285,-10.993,-4.603,-5.184,-9.13,-12.582,-10.132,-6.43,-6.43,-10.859,-11.088,-10.859,-11.088,-16.835,-8.257,-16.835,-19.128,-17.201,-16.325,-20.52,-19.128,-16.319,-19.961,-16.325,-10.488,-19.9,-16.319,-14.77,-25.423,-13.545,-14.935,0.0,0.0,0.0,0,1688127062.6097,2023-06-30 14:11:02,Rest
80,0,-18.463,-11.453,-16.105,-10.746,-13.376,-12.707,-15.643,-14.733,-13.596,-13.596,-15.459,-16.712,-15.459,-16.712,-20.405,-11.835,-20.405,-24.744,-18.208,-21.945,-25.11,-24.744,-20.914,-20.965,-21.945,-15.088,-25.516,-20.914,-20.39,-28.984,-18.654,-19.531,0.0,0.0,0.0,0,1688127062.6175,2023-06-30 14:11:02,Rest
81,0,-26.129,-15.54,-19.675,-15.858,-17.461,-17.305,-22.287,-19.841,-25.365,-25.365,-22.616,-24.38,-22.616,-24.38,-27.044,-25.143,-27.044,-30.867,-23.826,-26.533,-30.72,-30.867,-24.991,-25.043,-26.533,-20.196,-28.564,-24.991,-23.444,-31.516,-20.172,-22.073,0.0,0.0,0.0,0,1688127062.6254,2023-06-30 14:11:02,Rest
82,0,-18.419,-8.864,-15.045,-7.646,-11.808,-15.239,-17.142,-15.723,-17.143,-17.143,-14.909,-14.622,-14.909,-14.622,-21.894,-19.483,-21.894,-23.152,-21.24,-17.285,-25.566,-23.152,-17.794,-20.919,-17.285,-14.541,-17.777,-17.794,-19.322,-25.849,-15.029,-16.928,0.0,0.0,0.0,0,1688127062.6332,2023-06-30 14:11:02,Rest
83,0,-13.277,-4.757,-7.858,-1.49,-10.259,-6.514,-7.903,-9.047,-7.392,-7.392,-6.184,-7.435,-6.184,-7.435,-14.7,-7.168,-14.7,-14.42,-10.461,-12.657,-16.832,-14.42,-13.165,-13.726,-12.657,-5.304,-12.124,-13.165,-12.642,-18.651,-11.94,-10.763,0.0,0.0,0.0,0,1688127062.641,2023-06-30 14:11:02,Rest
84,0,-14.288,-6.289,-7.337,-5.075,-9.737,-3.434,-9.432,-9.55,-10.971,-10.971,-8.74,-9.989,-8.74,-9.989,-12.636,-7.161,-12.636,-12.356,-6.864,-12.132,-15.278,-12.356,-14.689,-14.225,-12.132,-7.348,-18.259,-14.689,-10.068,-20.17,-12.441,-11.777,0.0,0.0,0.0,0,1688127062.6488,2023-06-30 14:11:02,Rest
85,0,-5.053,-2.697,-4.768,-0.971,0.007,-2.406,-5.837,-4.418,-3.275,-3.275,-3.608,0.267,-3.608,0.267,-5.963,1.043,-5.963,-6.196,-1.734,-3.411,-10.139,-6.196,-7.502,-10.112,-3.411,-7.341,-11.581,-7.502,-7.497,-16.563,-6.793,-9.204,0.0,0.0,0.0,0,1688127062.6566,2023-06-30 14:11:02,Rest
86,0,-0.437,3.454,3.433,7.227,6.155,4.256,1.854,6.857,7.487,7.487,6.13,8.976,6.13,8.976,-1.347,12.825,-1.347,-1.579,8.002,0.691,-1.932,-1.579,-0.835,-2.417,0.691,1.888,2.263,-0.835,-1.854,-10.911,-0.638,-0.998,0.0,0.0,0.0,0,1688127062.6644,2023-06-30 14:11:02,Rest
87,0,-7.609,1.401,2.405,3.633,0.513,1.178,-3.271,3.264,0.307,0.307,1.513,0.258,1.513,0.258,-7.493,4.616,-7.493,-8.237,0.821,-8.531,-7.054,-8.237,-9.031,-7.026,-8.531,-4.262,-4.399,-9.031,-4.414,-20.122,-6.273,-1.509,0.0,0.0,0.0,0,1688127062.6722,2023-06-30 14:11:02,Rest
88,0,-12.724,-5.26,-6.306,-4.567,-5.635,-9.581,-9.928,-7.497,-7.378,-7.378,-5.661,-7.427,-5.661,-7.427,-11.584,-4.61,-11.584,-12.328,-11.987,-13.133,-16.268,-12.328,-17.219,-13.679,-13.133,-17.578,-17.203,-17.219,-14.655,-29.323,-13.951,-11.241,0.0,0.0,0.0,0,1688127062.68,2023-06-30 14:11:02,Rest
89,0,-15.273,-7.304,-9.374,-6.1,-6.654,-6.498,-8.893,-5.953,-5.834,-5.834,-7.192,-7.932,-7.192,-7.932,-12.085,-4.094,-12.085,-11.803,-9.414,-10.046,-14.715,-11.803,-14.128,-13.665,-10.046,-14.486,-15.649,-14.128,-15.153,-24.683,-12.913,-14.304,0.0,0.0,0.0,0,1688127062.6879,2023-06-30 14:11:02,Rest
90,0,-14.745,-4.223,-6.291,-2.507,-3.061,0.169,-8.372,-1.336,-4.803,-4.803,-8.722,-8.949,-8.722,-8.949,-16.171,-8.7,-16.171,-15.377,-7.867,-10.549,-12.651,-15.377,-12.064,-12.627,-10.549,-8.836,-8.973,-12.064,-7.965,-16.974,-10.851,-8.654,0.0,0.0,0.0,0,1688127062.6957,2023-06-30 14:11:02,Rest
91,0,-8.583,-1.145,-3.211,1.081,-1.009,-4.442,-6.827,-2.872,-3.261,-3.261,-6.152,-6.89,-6.152,-6.89,-14.106,-15.864,-14.106,-17.923,-12.47,-11.051,-14.175,-17.923,-13.589,-12.102,-11.051,-11.389,-5.378,-13.589,-7.445,-12.859,-8.791,-2.498,0.0,0.0,0.0,0,1688127062.7035,2023-06-30 14:11:02,Rest
92,0,-5.501,3.979,1.403,4.666,-1.008,-1.876,0.865,0.205,0.328,0.328,2.563,-2.785,2.563,-2.785,-4.358,-10.213,-4.358,-10.221,-4.261,-4.892,-6.476,-10.221,-6.915,-6.454,-4.892,-5.742,-2.299,-6.915,-4.876,-9.26,-3.147,2.115,0.0,0.0,0.0,0,1688127062.7113,2023-06-30 14:11:02,Rest
93,0,0.653,12.685,9.599,9.785,6.678,8.372,7.524,9.426,8.012,8.012,9.221,3.878,9.221,3.878,1.282,1.581,1.282,3.109,8.551,5.872,5.313,3.109,5.387,4.311,5.872,3.485,0.265,5.387,4.863,-2.078,1.98,9.285,0.0,0.0,0.0,0,1688127062.7191,2023-06-30 14:11:02,Rest
94,0,8.337,16.258,14.2,12.849,12.306,10.412,9.053,13.003,15.689,15.689,12.798,11.558,12.798,11.558,4.355,7.727,4.355,8.229,11.104,11.501,8.382,8.229,8.455,9.429,11.501,2.457,2.314,8.455,7.419,3.047,3.002,13.375,0.0,0.0,0.0,0,1688127062.7269,2023-06-30 14:11:02,Rest
95,0,2.181,10.094,9.063,8.737,5.122,5.279,4.433,6.842,7.989,7.989,9.711,8.473,9.711,8.473,3.326,3.621,3.326,3.098,6.994,6.879,2.738,3.098,2.299,0.711,6.879,-3.693,0.263,2.299,2.289,-2.591,-1.099,5.677,0.0,0.0,0.0,0,1688127062.7347,2023-06-30 14:11:02,Rest
96,0,-9.092,-0.162,0.857,0.532,-2.568,0.151,-3.768,-3.411,-3.803,-3.803,1.505,-1.782,1.505,-1.782,-5.899,-2.018,-5.899,-6.127,0.84,-1.837,-4.949,-6.127,-5.388,-8.511,-1.837,-8.812,-4.348,-5.388,-2.837,-13.859,-8.783,-5.6,4096.0,0.0,0.0,0,1688127062.7425,2023-06-30 14:11:02,Rest
97,0,-13.694,-8.359,-3.243,-4.08,-5.127,-5.485,-8.375,-7.506,-4.311,-4.311,-4.132,-4.341,-4.132,-4.341,-13.578,-2.016,-13.578,-12.268,-4.284,-3.885,-11.604,-12.268,-10.505,-10.04,-3.885,-14.439,-7.93,-10.505,-10.518,-17.432,-13.385,-10.205,4096.0,0.0,0.0,0,1688127062.7504,2023-06-30 14:11:02,Rest
98,0,-20.853,-12.961,-12.461,-8.174,-11.782,-10.09,-13.49,-11.084,-9.43,-9.43,-9.764,-6.899,-9.764,-6.899,-18.687,-5.6,-18.687,-18.916,-9.403,-10.541,-20.814,-18.916,-17.667,-19.764,-10.541,-21.597,-15.607,-17.667,-21.266,-21.0,-17.47,-14.806,4096.0,0.0,0.0,0,1688127062.7582,2023-06-30 14:11:02,Rest
99,0,-28.516,-19.608,-23.207,-17.387,-16.893,-16.228,-22.186,-20.295,-18.13,-18.13,-17.438,-17.65,-17.438,-17.65,-27.378,-11.23,-27.378,-26.069,-20.152,-25.899,-31.552,-26.069,-27.896,-32.552,-25.899,-28.235,-27.374,-27.896,-27.393,-32.25,-27.698,-24.525,3968.0,0.0,0.0,0,1688127062.766,2023-06-30 14:11:02,Rest
100,0,-27.976,-25.737,-22.671,-20.444,-17.389,-19.285,-24.213,-25.91,-15.55,-15.55,-19.47,-22.756,-19.47,-22.756,-29.4,-10.707,-29.4,-27.58,-23.718,-27.411,-33.057,-27.58,-30.942,-29.445,-27.411,-27.695,-28.884,-30.942,-25.316,-35.804,-31.257,-27.574,3968.0,0.0,0.0,0,1688127062.7738,2023-06-30 14:11:02,Rest
101,0,-26.411,-23.149,-22.136,-17.349,-19.42,-17.729,-20.09,-23.323,-17.584,-17.584,-17.402,-21.196,-17.402,-21.196,-25.784,-14.794,-25.784,-26.016,-19.083,-19.186,-30.463,-26.016,-27.837,-26.342,-19.186,-25.106,-28.855,-27.837,-25.291,-33.207,-27.639,-23.96,3968.0,0.0,0.0,0,1688127062.7816,2023-06-30 14:11:02,Rest
102,0,-34.069,-27.225,-31.848,-24.504,-22.987,-25.396,-29.291,-26.885,-29.861,-29.861,-23.532,-30.396,-23.532,-30.396,-35.492,-28.1,-35.492,-35.211,-28.286,-29.925,-41.703,-35.211,-35.494,-39.636,-29.925,-31.74,-41.121,-35.494,-36.024,-43.932,-37.858,-31.621,3968.0,0.0,0.0,0,1688127062.7894,2023-06-30 14:11:02,Rest
103,0,-45.818,-41.03,-38.476,-34.726,-29.624,-36.129,-41.045,-34.543,-35.467,-35.467,-35.804,-41.124,-35.804,-41.124,-47.24,-35.756,-47.24,-46.447,-41.578,-45.777,-54.469,-46.447,-45.704,-49.842,-45.777,-40.93,-51.327,-45.704,-46.746,-56.183,-51.14,-42.348,3968.0,0.0,0.0,0,1688127062.7972,2023-06-30 14:11:02,Rest
104,0,-42.186,-37.915,-33.315,-27.007,-27.545,-27.384,-32.807,-29.385,-28.771,-28.771,-31.669,-32.886,-31.669,-32.886,-38.996,-31.11,-38.996,-38.716,-33.339,-35.997,-42.632,-38.716,-37.462,-41.595,-35.997,-34.229,-42.054,-37.462,-39.527,-43.832,-41.355,-36.158,3968.0,0.0,0.0,0,1688127062.805,2023-06-30 14:11:02,Rest
105,0,-25.75,-21.483,-23.548,-15.709,-13.686,-15.061,-19.967,-20.647,-19.521,-19.521,-14.219,-19.533,-14.219,-19.533,-25.637,-21.857,-25.637,-22.795,-19.474,-21.105,-27.22,-22.795,-23.08,-28.234,-21.105,-19.85,-27.667,-23.08,-25.143,-25.345,-26.457,-23.314,3968.0,0.0,0.0,0,1688127062.8129,2023-06-30 14:11:02,Rest
106,0,-26.236,-21.462,-22.499,-19.279,-15.209,-19.144,-22.508,-25.237,-18.989,-18.989,-13.693,-22.588,-13.693,-22.588,-25.611,-16.2,-25.611,-24.822,-19.966,-25.182,-31.291,-24.822,-25.106,-25.644,-25.182,-20.343,-27.127,-25.106,-26.143,-27.881,-31.553,-23.803,3968.0,0.0,0.0,0,1688127062.8207,2023-06-30 14:11:02,Rest
107,0,-32.358,-25.026,-25.038,-19.26,-25.44,-21.174,-25.047,-26.236,-23.069,-23.069,-22.388,-26.664,-22.388,-26.664,-27.122,-14.134,-27.122,-30.432,-21.996,-29.767,-33.309,-30.432,-28.667,-29.204,-29.767,-22.884,-31.711,-28.667,-28.678,-31.952,-38.182,-24.804,3968.0,0.0,0.0,0,1688127062.8285,2023-06-30 14:11:02,Rest
108,0,-21.055,-15.267,-18.353,-12.069,-17.73,-13.981,-18.362,-15.452,-17.41,-17.41,-15.706,-16.903,-15.706,-16.903,-21.972,-11.046,-21.972,-23.742,-19.412,-22.053,-23.542,-23.742,-21.466,-25.589,-22.053,-14.152,-26.044,-21.466,-20.965,-21.161,-30.459,-17.094,3968.0,0.0,0.0,0,1688127062.8363,2023-06-30 14:11:02,Rest
109,0,-17.96,-12.178,-14.237,-14.106,-13.613,-13.967,-17.832,-16.461,-13.807,-13.807,-11.592,-13.812,-11.592,-13.812,-21.438,-13.597,-21.438,-23.206,-19.393,-17.42,-24.543,-23.206,-21.444,-23.002,-17.42,-10.552,-23.968,-21.444,-18.895,-17.554,-26.842,-16.052,4096.0,0.0,0.0,0,1688127062.8441,2023-06-30 14:11:02,Rest
110,0,-24.602,-14.728,-16.784,-14.604,-18.723,-14.465,-17.814,-21.567,-16.355,-16.355,-15.679,-15.848,-15.679,-15.848,-21.929,-15.12,-21.929,-26.257,-16.299,-16.891,-26.567,-26.257,-25.521,-24.004,-16.891,-13.103,-25.994,-25.521,-20.925,-20.61,-26.816,-16.549,3968.0,0.0,0.0,0,1688127062.8519,2023-06-30 14:11:02,Rest
111,0,-8.183,-1.393,-4.984,0.78,-5.384,-3.692,-4.476,-7.201,-3.018,-3.018,-2.343,-3.536,-2.343,-3.536,-7.562,2.313,-7.562,-10.349,-2.963,-6.115,-9.122,-10.349,-9.102,-12.709,-6.115,0.23,-11.623,-9.102,-6.559,-6.245,-13.469,-3.724,4096.0,0.0,0.0,0,1688127062.8597,2023-06-30 14:11:02,Rest
112,0,7.706,10.904,10.39,12.05,6.917,6.557,5.262,5.101,11.842,11.842,14.053,9.275,14.053,9.275,6.79,18.193,6.79,8.617,10.36,9.26,5.744,8.617,9.862,2.673,9.26,14.062,5.295,9.862,8.304,8.618,1.402,8.575,4096.0,0.0,0.0,0,1688127062.8675,2023-06-30 14:11:02,Rest
113,0,0.526,8.844,6.281,7.427,-0.775,6.551,2.183,-0.539,5.682,5.682,10.453,5.167,10.453,5.167,2.685,13.051,2.685,6.047,11.374,10.788,3.689,6.047,7.291,-1.428,10.788,7.901,4.265,7.291,4.197,4.511,-0.649,4.98,4096.0,0.0,0.0,0,1688127062.8754,2023-06-30 14:11:02,Rest
114,0,-0.499,6.273,1.152,4.858,-0.262,3.47,1.156,-0.026,4.652,4.652,6.344,2.6,6.344,2.6,-1.416,11.501,-1.416,1.43,7.264,4.629,2.66,1.43,2.161,-5.525,4.629,2.257,0.675,2.161,-0.418,1.945,-3.722,-0.148,4096.0,0.0,0.0,0,1688127062.8832,2023-06-30 14:11:02,Rest
115,0,2.575,4.73,6.274,6.39,4.349,3.979,1.155,5.097,12.844,12.844,7.875,5.672,7.875,5.672,3.196,15.588,3.196,3.99,5.72,2.575,1.633,3.99,2.158,-0.396,2.575,4.304,-0.863,2.158,2.144,3.992,-1.157,-0.66,4096.0,0.0,0.0,0,1688127062.891,2023-06-30 14:11:02,Rest
116,0,-7.161,-4.496,-0.905,-0.276,-5.389,-0.635,-6.018,-3.105,3.61,3.61,0.182,-4.58,0.182,-4.58,-5.004,2.765,-5.004,-5.748,-1.97,-3.575,-7.59,-5.748,-9.114,-7.568,-3.575,-0.311,-9.059,-9.114,-4.518,-6.77,-7.816,-6.295,4096.0,0.0,0.0,0,1688127062.8988,2023-06-30 14:11:02,Rest
117,0,-20.474,-15.762,-18.322,-14.108,-14.093,-14.467,-18.82,-16.422,-10.226,-10.226,-13.138,-19.433,-13.138,-19.433,-22.93,-13.632,-22.93,-24.185,-18.874,-21.502,-22.439,-24.185,-24.475,-23.955,-21.502,-13.118,-21.345,-24.475,-20.907,-23.157,-25.739,-19.609,3968.0,0.0,0.0,0,1688127062.9066,2023-06-30 14:11:02,Rest
118,0,-34.798,-29.579,-30.087,-26.389,-21.251,-26.236,-32.633,-28.189,-18.925,-18.925,-27.982,-29.147,-27.982,-29.147,-35.715,-23.864,-35.715,-37.993,-32.688,-37.362,-40.348,-37.993,-37.77,-35.714,-37.362,-31.036,-39.255,-37.77,-36.256,-36.966,-41.082,-35.471,3968.0,0.0,0.0,0,1688127062.9144,2023-06-30 14:11:02,Rest
119,0,-46.034,-39.283,-37.229,-33.535,-31.476,-31.333,-38.748,-37.382,-31.202,-31.202,-38.712,-38.339,-38.712,-38.339,-43.364,-35.623,-43.364,-45.64,-36.754,-41.423,-48.504,-45.64,-45.929,-45.924,-41.423,-41.251,-50.999,-45.929,-43.392,-45.126,-46.164,-43.12,3968.0,0.0,0.0,0,1688127062.9222,2023-06-30 14:11:02,Rest
120,0,-35.742,-31.047,-33.093,-27.866,-24.785,-26.178,-28.463,-30.685,-27.072,-27.072,-29.452,-33.69,-29.452,-33.69,-37.685,-30.977,-37.685,-38.934,-30.057,-33.185,-35.648,-38.934,-36.662,-41.78,-33.185,-27.89,-38.652,-36.662,-33.102,-36.372,-36.897,-34.88,3968.0,0.0,0.0,0,1688127062.93,2023-06-30 14:11:02,Rest
121,0,-19.312,-15.134,-15.642,-12.469,-10.927,-13.344,-16.14,-15.285,-6.553,-6.553,-11.492,-16.238,-11.492,-16.238,-19.717,-11.991,-19.717,-21.477,-17.731,-19.832,-20.756,-21.477,-20.231,-21.246,-19.832,-8.906,-22.732,-20.231,-17.7,-17.893,-24.052,-18.451,3968.0,0.0,0.0,0,1688127062.9379,2023-06-30 14:11:02,Rest
122,0,-13.657,-5.898,-2.306,-0.674,-6.818,-5.646,-10.488,-7.073,-1.423,-1.423,-6.357,-5.976,-6.357,-5.976,-12.525,-2.757,-12.525,-14.283,-7.98,-11.103,-15.099,-14.283,-11.502,-12.515,-11.103,-3.262,-19.123,-11.502,-12.047,-7.116,-18.393,-6.65,4096.0,0.0,0.0,0,1688127062.9457,2023-06-30 14:11:02,Rest
123,0,-4.422,2.305,1.282,2.913,0.873,-2.055,-0.744,0.107,-1.421,-1.421,-1.228,-0.847,-1.228,-0.847,-8.414,2.881,-8.414,-9.146,-0.287,-4.431,-3.814,-9.146,-3.293,-10.454,-4.431,2.889,-8.858,-3.293,-2.813,-0.961,-9.665,1.042,4096.0,0.0,0.0,0,1688127062.9535,2023-06-30 14:11:02,Rest
124,0,1.73,4.864,2.306,2.398,5.996,3.071,3.355,1.131,6.777,6.777,6.458,4.277,6.458,4.277,-0.721,10.051,-0.721,2.647,4.836,0.184,2.85,2.647,0.808,-3.783,0.184,9.034,-1.677,0.808,4.362,0.064,-4.02,3.09,4096.0,0.0,0.0,0,1688127062.9613,2023-06-30 14:11:02,Rest
125,0,-7.493,-2.313,-1.795,-2.215,-6.818,-0.519,-6.382,-8.604,0.622,0.622,-0.208,-1.875,-0.208,-1.875,-5.331,5.942,-5.331,0.082,1.757,-5.964,-8.423,0.082,-8.926,-8.39,-5.964,3.902,-15.507,-8.926,-6.401,-7.108,-14.262,-5.622,4096.0,0.0,0.0,0,1688127062.9691,2023-06-30 14:11:02,Rest
126,0,-11.584,-6.921,-8.453,-6.312,-13.984,-9.227,-10.474,-12.181,-10.137,-10.137,-7.38,-10.07,-7.38,-10.07,-12.498,-1.748,-12.498,-11.188,-4.392,-14.667,-14.563,-11.188,-14.04,-17.603,-14.667,-2.762,-21.64,-14.04,-13.054,-9.15,-21.42,-11.764,4096.0,0.0,0.0,0,1688127062.9769,2023-06-30 14:11:02,Rest
127,0,-9.524,-10.5,-10.494,-9.891,-11.92,-8.706,-8.926,-10.12,-9.102,-9.102,-3.275,-10.572,-3.275,-10.572,-11.46,-4.821,-11.46,-12.202,-7.974,-15.165,-11.987,-12.202,-14.026,-16.561,-15.165,-7.883,-14.958,-14.026,-10.992,-11.19,-18.837,-12.777,4096.0,0.0,0.0,0,1688127062.9847,2023-06-30 14:11:02,Rest
0,0,9.748,14.416,14.301,3.837,9.766,5.595,8.468,6.967,-1.106,-1.106,14.088,5.138,14.088,5.138,13.22,-0.182,13.22,12.046,10.596,0.844,7.772,12.046,3.148,15.736,0.844,6.524,12.014,3.148,4.775,0.118,8.96,20.145,0.0,0.0,0.0,0,1688127062.9925,2023-06-30 14:11:02,Rest
1,0,10.25,20.037,20.434,5.883,10.78,8.151,7.947,6.448,0.944,0.944,14.586,5.645,14.586,5.645,12.694,2.892,12.694,8.448,11.61,2.892,7.764,8.448,4.169,19.819,2.892,11.641,8.415,4.169,5.283,3.704,11.001,26.784,0.0,0.0,0.0,0,1688127063.0004,2023-06-30 14:11:03,Rest
2,0,20.486,30.776,24.512,14.586,14.356,15.828,16.136,16.176,6.066,6.066,22.256,10.25,22.256,10.25,20.878,11.086,20.878,20.222,21.844,12.111,22.613,20.222,16.973,29.533,12.111,21.363,22.752,16.973,16.548,14.459,22.773,27.782,0.0,0.0,0.0,0,1688127063.0082,2023-06-30 14:11:03,Rest
3,0,31.737,32.794,31.148,17.133,18.952,22.984,24.829,21.282,10.159,10.159,30.943,16.9,30.943,16.9,31.104,16.711,31.104,34.035,33.093,19.271,32.325,34.035,24.64,37.7,19.271,28.002,34.512,24.64,24.728,22.129,31.459,34.415,0.0,0.0,0.0,0,1688127063.016,2023-06-30 14:11:03,Rest
4,0,25.045,28.663,30.604,9.431,15.347,15.789,20.706,14.089,7.075,7.075,26.301,15.346,26.301,15.346,26.462,15.157,26.462,24.779,25.888,12.591,23.071,24.779,16.419,29.466,12.591,22.338,26.28,16.419,18.044,14.422,24.255,32.331,0.0,0.0,0.0,0,1688127063.0238,2023-06-30 14:11:03,Rest
5,0,15.798,24.024,22.377,4.811,8.672,7.064,12.488,11.001,3.994,3.994,17.566,10.208,17.566,10.208,16.189,12.068,16.189,14.508,17.152,4.382,15.875,14.508,10.767,19.702,4.382,10.021,20.106,10.767,10.853,4.674,16.547,19.491,0.0,0.0,0.0,0,1688127063.0316,2023-06-30 14:11:03,Rest
6,0,14.245,17.852,18.256,8.392,9.175,8.082,11.451,11.502,5.014,5.014,15.499,10.71,15.499,10.71,14.636,8.47,14.636,16.03,17.648,4.89,13.81,16.03,9.219,21.22,4.89,5.4,19.062,9.219,8.281,3.132,15.505,16.91,0.0,0.0,0.0,0,1688127063.0394,2023-06-30 14:11:03,Rest
7,0,9.62,14.248,16.188,5.31,9.679,7.049,9.39,3.294,2.448,2.448,13.434,7.113,13.434,7.113,12.06,2.826,12.06,9.867,13.019,5.397,6.112,9.867,3.575,19.661,5.397,7.444,10.846,3.575,4.174,1.592,12.416,19.454,0.0,0.0,0.0,0,1688127063.0472,2023-06-30 14:11:03,Rest
8,0,10.635,18.844,15.66,0.182,8.132,8.066,9.381,4.315,0.396,0.396,12.909,2.495,12.909,2.495,11.023,2.311,11.023,9.345,12.494,5.392,8.667,9.345,5.62,16.056,5.392,8.461,13.396,5.62,7.244,4.152,13.428,18.923,0.0,0.0,0.0,0,1688127063.055,2023-06-30 14:11:03,Rest
9,0,22.408,27.535,24.866,10.94,14.272,17.28,20.642,20.192,11.154,11.154,20.58,13.764,20.58,13.764,21.771,10.506,21.771,24.192,24.264,13.071,20.954,24.192,16.885,26.798,13.071,12.039,25.678,16.885,16.971,12.345,23.661,26.588,0.0,0.0,0.0,0,1688127063.0629,2023-06-30 14:11:03,Rest
10,0,24.947,33.143,33.038,24.249,22.967,21.873,27.282,25.295,25.488,25.488,26.707,26.045,26.707,26.045,29.946,18.692,29.946,27.242,27.826,16.644,24.519,27.242,19.942,34.968,16.644,15.613,27.702,19.942,20.54,13.87,28.248,38.857,0.0,0.0,0.0,0,1688127063.0707,2023-06-30 14:11:03,Rest
11,0,23.385,35.671,35.054,24.737,25.505,22.364,25.717,26.295,28.536,28.536,28.218,23.97,28.218,23.97,28.379,25.333,28.379,24.141,26.774,14.578,26.544,24.141,19.41,33.909,14.578,17.646,26.65,19.41,21.031,12.831,29.244,40.355,0.0,0.0,0.0,0,1688127063.0785,2023-06-30 14:11:03,Rest
12,0,28.485,38.709,37.58,25.225,29.066,26.952,30.303,35.49,26.458,26.458,30.751,26.508,30.751,26.508,28.863,29.406,28.863,32.826,33.919,18.15,33.69,32.826,23.489,37.461,18.15,21.215,30.209,23.489,23.572,19.991,33.826,39.803,0.0,0.0,0.0,0,1688127063.0863,2023-06-30 14:11:03,Rest
13,0,27.944,38.67,36.518,29.81,31.598,26.413,30.272,33.917,25.919,25.919,30.72,30.579,30.72,30.579,30.371,25.791,30.371,32.281,33.373,20.181,30.582,32.281,23.466,38.448,20.181,23.243,27.617,23.466,23.548,22.532,34.304,41.812,0.0,0.0,0.0,0,1688127063.0941,2023-06-30 14:11:03,Rest
14,0,22.281,32.484,30.334,25.682,23.882,20.751,21.02,23.125,22.82,22.82,26.591,21.327,26.591,21.327,26.754,23.716,26.754,20.465,24.631,14.013,21.33,20.465,17.807,32.774,14.013,20.146,24.004,17.807,21.476,14.825,29.147,36.647,0.0,0.0,0.0,0,1688127063.1019,2023-06-30 14:11:03,Rest
15,0,19.185,25.279,26.205,13.873,16.173,15.607,15.876,17.467,12.551,12.551,22.466,11.06,22.466,11.06,20.068,22.155,20.068,16.346,19.995,7.339,17.723,16.346,12.154,26.594,7.339,12.953,22.443,12.154,15.306,8.15,23.995,26.364,0.0,0.0,0.0,0,1688127063.1097,2023-06-30 14:11:03,Rest
16,0,8.407,16.545,16.957,4.638,12.059,6.37,9.713,7.203,1.78,1.78,15.271,5.926,15.271,5.926,11.338,6.764,11.338,10.182,13.828,0.672,10.533,10.182,5.482,15.809,0.672,0.133,13.199,5.482,2.996,-0.055,14.237,18.141,0.0,0.0,0.0,0,1688127063.1175,2023-06-30 14:11:03,Rest
17,0,0.714,9.356,10.28,1.047,5.387,1.753,0.482,0.023,-2.321,-2.321,8.084,-0.228,8.084,-0.228,6.204,-1.44,6.204,5.049,9.203,0.159,3.862,5.049,1.89,9.133,0.159,-6.015,9.087,1.89,-0.593,-6.203,11.661,13.0,0.0,0.0,0.0,0,1688127063.1254,2023-06-30 14:11:03,Rest
18,0,13.521,16.007,19.492,7.706,8.968,9.436,8.678,10.782,2.292,2.292,15.248,6.945,15.248,6.945,13.37,10.345,13.37,15.29,15.854,10.405,13.592,15.29,9.06,21.419,10.405,8.336,18.812,9.06,9.141,3.025,24.97,17.085,0.0,0.0,0.0,0,1688127063.1332,2023-06-30 14:11:03,Rest
19,0,28.364,33.921,32.792,22.555,25.865,21.21,27.625,26.14,16.122,16.122,31.114,25.381,31.114,25.381,28.214,18.531,28.214,28.595,29.158,19.616,30.485,28.595,22.371,37.792,19.616,26.77,31.601,22.371,23.989,19.928,37.24,35.511,0.0,0.0,0.0,0,1688127063.141,2023-06-30 14:11:03,Rest
20,0,34.484,43.621,41.981,31.242,34.036,30.41,34.769,32.774,29.939,29.939,39.28,29.966,39.28,29.966,39.456,21.074,39.456,32.665,36.813,27.793,39.163,32.665,33.107,43.901,27.793,31.354,40.278,33.107,34.723,28.618,43.35,50.333,0.0,0.0,0.0,0,1688127063.1488,2023-06-30 14:11:03,Rest
21,0,32.912,38.967,43.988,25.575,26.317,29.355,31.148,27.618,23.249,23.249,34.118,21.739,34.118,21.739,34.806,23.102,34.806,29.046,32.678,31.864,35.026,29.046,31.025,40.784,31.864,29.786,39.213,31.025,31.615,26.027,43.307,44.135,0.0,0.0,0.0,0,1688127063.1566,2023-06-30 14:11:03,Rest
22,0,16.998,26.12,28.575,13.254,15.02,16.005,18.822,12.221,1.709,1.709,19.227,9.934,19.227,9.934,15.816,7.198,15.816,11.598,15.739,13.901,16.548,11.598,12.039,24.861,13.901,21.559,24.83,12.039,14.165,12.681,30.456,24.623,0.0,0.0,0.0,0,1688127063.1644,2023-06-30 14:11:03,Rest
23,0,0.075,12.262,10.616,3.507,6.296,4.206,2.922,0.938,-10.076,-10.076,3.326,-2.371,3.326,-2.371,0.943,-11.765,0.943,-5.319,1.891,-8.654,0.137,-5.319,-4.88,7.93,-8.654,7.193,9.948,-4.88,1.855,1.398,15.056,12.815,0.0,0.0,0.0,0,1688127063.1722,2023-06-30 14:11:03,Rest
24,0,-0.95,5.59,7.019,-1.107,2.191,0.616,-2.204,-2.136,-11.603,-11.603,-1.801,-5.442,-1.801,-5.442,-1.619,-8.167,-1.619,-5.826,-1.697,-11.207,-3.449,-5.826,-6.924,6.386,-11.207,1.038,3.79,-6.924,-3.27,-3.726,8.381,12.802,0.0,0.0,0.0,0,1688127063.18,2023-06-30 14:11:03,Rest
25,0,0.588,8.658,8.036,-0.594,1.164,0.615,2.409,-4.696,-12.104,-12.104,3.324,-1.338,3.324,-1.338,0.431,2.6,0.431,-2.234,0.866,-10.684,-2.421,-2.234,-3.843,8.941,-10.684,1.549,2.762,-3.843,-5.316,-7.309,6.836,12.277,0.0,0.0,0.0,0,1688127063.1879,2023-06-30 14:11:03,Rest
26,0,6.223,15.821,14.688,7.091,5.262,7.275,7.529,4.53,-3.382,-3.382,12.543,5.323,12.543,5.323,8.116,7.72,8.116,5.453,11.112,-5.55,5.266,5.453,4.358,14.055,-5.55,5.646,12.493,4.358,3.911,-2.179,15.538,14.826,0.0,0.0,0.0,0,1688127063.1957,2023-06-30 14:11:03,Rest
27,0,22.61,26.052,30.043,17.331,19.089,17.514,17.768,21.432,10.966,10.966,22.776,17.101,22.776,17.101,22.964,18.983,22.964,23.378,25.957,13.923,21.655,23.378,20.235,28.385,13.923,16.399,30.411,20.235,18.764,13.193,33.454,29.156,0.0,0.0,0.0,0,1688127063.2035,2023-06-30 14:11:03,Rest
28,0,27.198,32.173,33.599,19.362,24.705,21.595,26.459,20.386,11.979,11.979,25.827,21.694,25.827,21.694,28.577,26.137,28.577,28.99,30.03,20.057,27.268,28.99,24.825,35.529,20.057,20.481,35.504,24.825,23.868,17.278,35.982,35.787,0.0,0.0,0.0,0,1688127063.2113,2023-06-30 14:11:03,Rest
29,0,15.9,23.944,24.344,11.146,11.36,16.45,19.773,8.583,1.209,1.209,21.703,13.476,21.703,13.476,19.327,17.913,19.327,16.153,20.778,8.766,17.507,16.153,13.53,26.272,8.766,9.702,23.685,13.53,16.672,5.478,25.187,23.968,0.0,0.0,0.0,0,1688127063.2191,2023-06-30 14:11:03,Rest
30,0,14.348,16.236,23.295,7.549,6.738,11.31,12.068,8.062,1.208,1.208,18.095,10.388,18.095,10.388,13.672,10.723,13.672,11.526,13.585,7.733,13.391,11.526,7.881,20.611,7.733,5.082,16.489,7.881,9.996,1.374,21.576,20.87,0.0,0.0,0.0,0,1688127063.2269,2023-06-30 14:11:03,Rest
31,0,20.481,25.441,29.932,13.689,19.027,13.861,17.692,13.689,9.916,9.916,20.639,16.526,20.639,16.526,19.806,15.323,19.806,21.761,19.719,14.385,20.038,21.761,17.094,25.713,14.385,13.274,27.231,17.094,17.158,10.594,27.19,31.608,0.0,0.0,0.0,0,1688127063.2347,2023-06-30 14:11:03,Rest
32,0,21.997,31.563,30.414,17.261,22.082,18.97,24.334,17.774,10.418,10.418,25.229,18.046,25.229,18.046,23.372,17.357,23.372,24.301,24.823,16.42,23.092,24.301,21.176,29.273,16.42,18.384,33.864,21.176,24.313,15.707,30.236,32.089,4096.0,0.0,0.0,0,1688127063.2425,2023-06-30 14:11:03,Rest
33,0,22.488,24.359,25.773,16.22,17.449,17.926,21.236,18.268,7.334,7.334,25.203,14.442,25.203,14.442,21.3,11.704,21.3,17.616,18.65,17.941,19.995,17.616,16.032,26.683,17.941,17.341,25.633,16.032,19.166,12.617,26.62,25.397,4096.0,0.0,0.0,0,1688127063.2504,2023-06-30 14:11:03,Rest
34,0,29.125,32.02,32.407,21.326,23.579,22.007,24.801,20.299,16.036,16.036,28.764,20.063,28.764,20.063,28.963,16.816,28.963,24.771,25.292,24.583,27.147,24.771,21.651,33.316,24.583,23.983,28.681,21.651,23.757,18.752,28.13,33.056,4096.0,0.0,0.0,0,1688127063.2582,2023-06-30 14:11:03,Rest
35,0,42.416,51.455,50.818,34.113,35.851,36.329,39.633,35.136,30.876,30.876,44.105,34.9,44.105,34.9,46.865,36.267,46.865,47.288,47.808,36.341,45.051,47.288,40.072,50.189,36.341,40.353,49.657,40.072,42.689,35.639,42.447,49.417,4096.0,0.0,0.0,0,1688127063.266,2023-06-30 14:11:03,Rest
36,0,49.546,54.478,57.427,41.251,40.938,42.441,45.229,45.347,35.969,35.969,53.795,43.062,53.795,43.062,52.453,44.427,52.453,51.339,53.395,42.453,52.178,51.339,44.131,56.286,42.453,49.534,53.194,44.131,46.745,42.264,49.577,56.54,4096.0,0.0,0.0,0,1688127063.2738,2023-06-30 14:11:03,Rest
37,0,43.349,47.251,49.685,36.087,37.823,37.275,37.499,35.568,33.371,33.371,44.519,39.432,44.519,39.432,43.692,38.235,43.692,40.529,44.633,34.725,44.441,40.529,36.402,46.496,34.725,41.8,40.333,36.402,39.013,36.074,41.33,51.36,4096.0,0.0,0.0,0,1688127063.2816,2023-06-30 14:11:03,Rest
38,0,41.256,49.765,49.123,31.952,37.273,38.263,38.998,33.483,34.362,34.362,41.401,39.905,41.401,39.905,44.16,40.759,44.16,45.099,47.662,32.641,43.884,45.099,39.439,46.962,32.641,37.66,45.416,39.439,41.536,38.087,42.313,48.747,4096.0,0.0,0.0,0,1688127063.2894,2023-06-30 14:11:03,Rest
39,0,55.047,57.4,59.832,42.679,44.408,46.421,52.279,50.868,41.5,41.5,55.704,51.136,55.704,51.136,55.899,48.915,55.899,55.813,55.811,43.88,55.111,55.813,49.646,62.797,43.88,49.918,61.764,49.646,50.203,48.807,56.103,61.506,4096.0,0.0,0.0,0,1688127063.2972,2023-06-30 14:11:03,Rest
40,0,68.824,69.638,72.58,58.005,53.073,55.596,61.961,61.576,51.705,51.705,67.944,62.356,67.944,62.356,67.114,52.452,67.114,60.88,64.465,54.082,67.864,60.88,57.281,73.492,54.082,62.675,67.338,57.281,60.912,59.005,65.781,75.789,4096.0,0.0,0.0,0,1688127063.305,2023-06-30 14:11:03,Rest
41,0,78.49,86.475,85.315,67.169,64.803,67.836,71.12,69.199,63.949,63.949,77.097,72.54,77.097,72.54,79.855,64.183,79.855,76.188,79.77,66.323,81.116,76.188,72.081,83.153,66.323,72.346,76.492,72.081,77.245,72.266,75.962,85.447,4096.0,0.0,0.0,0,1688127063.3129,2023-06-30 14:11:03,Rest
42,0,89.169,97.659,94.451,74.274,78.058,79.039,82.32,83.986,73.619,73.619,88.803,80.152,88.803,80.152,92.583,78.463,92.583,91.994,90.96,80.089,95.379,91.994,87.378,96.902,80.089,85.082,92.297,87.378,87.414,87.05,90.743,98.169,4096.0,0.0,0.0,0,1688127063.3207,2023-06-30 14:11:03,Rest
43,0,96.765,101.147,99.48,81.372,80.029,82.546,88.385,88.513,76.107,76.107,94.862,83.658,94.862,83.658,96.076,79.409,96.076,94.976,95.993,84.62,103.481,94.976,90.877,101.928,84.62,91.144,100.402,90.877,90.912,92.599,98.849,105.756,4096.0,0.0,0.0,0,1688127063.3285,2023-06-30 14:11:03,Rest
44,0,100.254,105.145,103.991,85.901,77.9,84.001,91.883,85.863,81.153,81.153,98.354,89.722,98.354,89.722,99.566,79.842,99.566,100.004,102.044,88.634,106.964,100.004,94.372,102.338,88.634,91.566,105.424,94.372,97.481,93.018,101.824,104.625,4096.0,0.0,0.0,0,1688127063.3363,2023-06-30 14:11:03,Rest
45,0,102.716,110.163,109.523,89.914,85.507,90.064,96.914,94.999,92.855,92.855,103.378,95.78,103.378,95.78,106.639,90.008,106.639,107.076,104.504,94.693,111.467,107.076,101.962,110.433,94.693,98.646,112.491,101.962,102.507,98.048,106.333,111.181,4096.0,0.0,0.0,0,1688127063.3441,2023-06-30 14:11:03,Rest
46,0,102.101,110.565,109.926,88.287,86.446,91.511,96.817,99.514,93.787,93.787,103.787,94.147,103.787,94.147,104.995,90.943,104.995,104.407,101.838,92.549,112.381,104.407,99.299,111.347,92.549,101.109,111.354,99.299,101.38,98.975,105.714,116.193,4096.0,0.0,0.0,0,1688127063.3519,2023-06-30 14:11:03,Rest
47,0,96.875,103.794,102.131,81.026,77.65,82.71,90.061,89.169,81.398,81.398,95.999,88.93,95.999,88.93,95.669,79.069,95.669,98.155,97.637,83.747,105.608,98.155,91.003,99.965,83.747,90.25,102.534,91.003,94.106,90.679,97.411,104.293,4096.0,0.0,0.0,0,1688127063.3597,2023-06-30 14:11:03,Rest
48,0,92.68,98.567,98.443,78.896,77.573,78.017,86.897,86.518,78.755,78.755,91.292,85.255,91.292,85.255,91.987,73.354,91.987,94.471,93.954,81.614,99.867,94.471,89.375,96.791,81.614,86.061,99.869,89.375,90.426,85.465,93.216,96.505,4096.0,0.0,0.0,0,1688127063.3675,2023-06-30 14:11:03,Rest
49,0,97.198,102.567,104.492,81.891,83.13,84.599,92.445,94.116,86.873,86.873,96.836,88.756,96.836,88.756,98.555,81.478,98.555,97.963,94.884,86.656,104.89,97.963,93.896,105.404,86.656,95.196,103.868,93.896,95.971,89.991,97.221,105.63,4096.0,0.0,0.0,0,1688127063.3754,2023-06-30 14:11:03,Rest
50,0,99.662,104.514,104.9,79.76,79.973,85.027,93.377,89.411,84.737,84.737,100.325,92.765,100.325,92.765,101.53,85.495,101.53,100.426,95.302,86.569,106.322,100.426,93.802,105.298,86.569,96.126,103.252,93.802,96.9,91.438,96.099,107.061,4096.0,0.0,0.0,0,1688127063.3832,2023-06-30 14:11:03,Rest
51,0,86.755,96.212,94.036,74.045,73.233,74.695,82.013,79.588,72.869,72.869,87.417,81.914,87.417,81.914,91.183,74.139,91.183,88.543,85.985,75.212,93.408,88.543,83.462,92.897,75.212,85.271,93.415,83.462,85.02,81.612,86.269,94.146,4096.0,0.0,0.0,0,1688127063.391,2023-06-30 14:11:03,Rest
52,0,78.471,89.456,87.795,70.385,72.648,71.547,74.759,78.996,69.21,69.21,78.621,71.074,78.621,71.074,80.845,66.892,80.845,77.183,78.214,67.964,83.581,77.183,74.157,85.12,67.964,78.526,83.075,74.157,80.324,73.846,80.035,87.392,4096.0,0.0,0.0,0,1688127063.3988,2023-06-30 14:11:03,Rest
53,0,76.856,82.194,80.535,64.167,67.964,67.377,71.61,71.745,67.604,67.604,78.542,71.515,78.542,71.515,76.666,63.752,76.666,73.52,73.013,61.236,76.325,73.52,64.861,81.449,61.236,70.763,72.234,64.861,75.633,64.551,72.27,82.181,4096.0,0.0,0.0,0,1688127063.4066,2023-06-30 14:11:03,Rest
54,0,53.725,59.571,55.863,43.61,47.916,44.256,51.046,48.619,48.069,48.069,56.434,55.05,56.434,55.05,55.585,46.269,55.585,49.368,49.886,34.023,49.097,49.368,41.743,59.338,34.023,48.151,49.108,41.743,47.38,37.846,46.583,60.07,4096.0,0.0,0.0,0,1688127063.4144,2023-06-30 14:11:03,Rest
55,0,28.056,36.457,34.291,24.099,30.45,24.231,29.991,32.177,26.504,26.504,28.713,30.916,28.713,30.916,29.401,28.292,29.401,20.629,26.27,9.398,18.821,20.629,18.135,31.614,9.398,25.561,26.517,18.135,23.254,12.193,20.921,35.419,4096.0,0.0,0.0,0,1688127063.4222,2023-06-30 14:11:03,Rest
56,0,34.176,38.47,39.379,28.173,34.518,29.843,34.059,34.194,29.039,29.039,34.832,34.471,34.832,34.471,34.495,33.899,34.495,27.781,31.367,19.122,25.975,27.781,22.727,35.681,19.122,26.56,31.101,22.727,31.94,16.792,28.072,35.896,4096.0,0.0,0.0,0,1688127063.43,2023-06-30 14:11:03,Rest
57,0,50.536,56.362,56.246,42.49,45.754,45.182,49.394,44.406,40.793,40.793,52.728,47.757,52.728,47.757,54.953,44.112,54.953,49.783,51.316,41.132,53.614,49.783,42.172,58.187,41.132,42.927,51.05,42.172,49.327,36.755,52.635,54.816,4096.0,0.0,0.0,0,1688127063.4379,2023-06-30 14:11:03,Rest
58,0,54.071,64.503,63.362,46.033,48.782,50.26,54.98,49.997,43.314,43.314,55.237,49.758,55.237,49.758,57.972,43.043,57.972,51.782,57.924,46.727,59.708,51.782,50.327,62.739,46.727,52.106,62.27,50.327,55.937,46.964,61.291,63.982,4096.0,0.0,0.0,0,1688127063.4457,2023-06-30 14:11:03,Rest
59,0,52.48,62.902,61.25,43.938,49.246,46.623,52.876,50.971,43.783,43.783,53.133,51.758,53.133,51.758,52.791,41.463,52.791,47.632,51.206,44.118,50.939,47.632,46.178,57.554,44.118,47.955,61.183,46.178,53.832,43.331,54.57,61.357,4096.0,0.0,0.0,0,1688127063.4535,2023-06-30 14:11:03,Rest
60,0,52.94,63.863,60.164,48.505,52.783,46.065,53.848,53.482,49.887,49.887,55.129,51.194,55.129,51.194,56.324,44.495,56.324,50.658,50.643,45.099,51.912,50.658,45.108,60.058,45.099,44.833,57.536,45.108,51.729,40.726,54.516,62.32,4096.0,0.0,0.0,0,1688127063.4613,2023-06-30 14:11:03,Rest
61,0,60.059,70.972,69.325,56.141,56.316,53.703,61.479,62.138,57.009,57.009,62.758,55.753,62.758,55.753,65.489,51.623,65.489,59.317,62.888,53.763,64.156,59.317,58.382,67.17,53.763,55.035,64.138,58.382,59.874,49.395,65.219,70.455,4096.0,0.0,0.0,0,1688127063.4691,2023-06-30 14:11:03,Rest
62,0,70.758,77.048,77.965,60.696,60.871,58.772,67.053,68.736,61.563,61.563,71.917,66.456,71.917,66.456,71.059,57.207,71.059,65.917,69.485,61.394,71.264,65.917,67.546,73.25,61.394,63.177,78.419,67.546,69.036,57.542,71.302,74.483,4096.0,0.0,0.0,0,1688127063.4769,2023-06-30 14:11:03,Rest
63,0,69.662,76.459,73.789,59.098,62.859,57.177,63.912,66.105,59.452,59.452,69.283,64.34,69.283,64.34,71.5,53.051,71.5,62.265,63.78,55.697,69.656,62.265,59.793,74.714,55.697,60.04,77.828,59.793,66.406,53.898,65.595,74.921,4096.0,0.0,0.0,0,1688127063.4847,2023-06-30 14:11:03,Rest
64,0,69.593,77.92,72.69,63.137,64.845,60.193,65.897,67.576,57.856,57.856,67.677,61.202,67.677,61.202,73.99,52.486,73.99,62.715,64.741,54.617,70.611,62.715,60.246,76.688,54.617,64.59,68.016,60.246,69.413,54.869,67.067,82.53,0.0,0.0,0.0,0,1688127063.4925,2023-06-30 14:11:03,Rest
65,0,81.819,87.575,86.962,74.857,73.49,69.867,78.126,80.829,66.507,66.507,81.954,74.461,81.954,74.461,83.65,63.704,83.65,78.534,77.996,71.981,80.786,78.534,77.604,86.858,71.981,77.846,77.17,77.604,80.102,67.622,83.393,92.182,0.0,0.0,0.0,0,1688127063.5004,2023-06-30 14:11:03,Rest
66,0,92.495,98.246,98.146,80.418,80.589,79.531,86.245,90.482,76.687,76.687,92.631,83.608,92.631,83.608,92.276,75.424,92.276,90.239,88.676,84.204,93.001,90.239,87.26,98.042,84.204,84.428,95.536,87.26,87.194,79.337,94.581,97.212,0.0,0.0,0.0,0,1688127063.5082,2023-06-30 14:11:03,Rest
67,0,98.55,106.345,103.171,82.387,83.582,86.624,91.282,91.416,82.758,82.758,96.637,87.111,96.637,87.111,100.893,85.082,100.893,97.321,97.297,88.218,104.691,97.321,91.784,106.141,88.218,93.565,103.637,91.784,97.865,85.406,99.097,104.8,0.0,0.0,0.0,0,1688127063.516,2023-06-30 14:11:03,Rest
68,0,101.013,109.313,107.678,85.378,85.035,89.099,96.826,94.398,85.236,85.236,103.2,93.683,103.2,93.683,105.915,86.022,105.915,102.346,100.786,93.253,108.685,102.346,94.766,110.133,93.253,101.156,103.021,94.766,103.403,86.345,102.584,108.793,0.0,0.0,0.0,0,1688127063.5238,2023-06-30 14:11:03,Rest
69,0,89.642,96.908,95.275,73.51,73.679,78.251,85.459,85.594,74.905,74.905,91.826,82.319,91.826,82.319,91.977,72.616,91.977,85.338,85.828,79.327,91.67,85.338,80.327,96.703,79.327,87.223,90.11,80.327,84.344,73.451,89.674,94.852,0.0,0.0,0.0,0,1688127063.5316,2023-06-30 14:11:03,Rest
70,0,67.523,72.732,70.077,51.919,54.138,58.193,59.758,58.357,51.776,51.776,64.582,55.597,64.582,55.597,67.294,56.149,67.294,55.539,60.639,51.071,62.889,55.539,55.656,71.503,51.071,64.082,67.479,55.656,60.694,51.348,63.969,70.679,0.0,0.0,0.0,0,1688127063.5394,2023-06-30 14:11:03,Rest
71,0,49.524,56.778,56.175,39.572,45.887,43.278,45.353,39.855,34.818,34.818,51.197,39.66,51.197,39.66,54.419,40.724,54.419,42.676,45.209,37.7,46.945,42.676,42.28,55.55,37.7,51.21,55.116,42.28,48.85,34.903,49.56,53.702,0.0,0.0,0.0,0,1688127063.5472,2023-06-30 14:11:03,Rest
72,0,41.278,50.574,51.508,35.946,43.28,37.599,43.259,40.328,29.148,29.148,46.535,33.472,46.535,33.472,47.705,25.826,47.705,39.047,40.041,34.589,41.262,39.047,36.602,49.859,34.589,42.449,52.499,36.602,40.092,29.233,45.412,48.525,0.0,0.0,0.0,0,1688127063.555,2023-06-30 14:11:03,Rest
73,0,41.749,45.4,45.308,35.91,36.064,37.562,38.092,40.8,24.508,24.508,40.853,28.828,40.853,28.828,41.509,24.263,41.509,32.86,37.439,29.943,34.561,32.86,30.93,46.735,29.943,39.333,43.225,30.93,36.466,28.179,40.756,47.452,0.0,0.0,0.0,0,1688127063.5629,2023-06-30 14:11:03,Rest
74,0,41.195,43.818,43.214,34.337,33.466,33.938,32.931,33.586,22.434,22.434,39.276,27.775,39.276,27.775,39.931,29.362,39.931,28.216,31.767,26.839,29.916,28.216,26.801,46.176,26.839,41.855,34.473,26.801,38.478,21.491,37.129,43.306,0.0,0.0,0.0,0,1688127063.5707,2023-06-30 14:11:03,Rest
75,0,38.08,43.262,42.658,28.668,35.994,29.805,34.435,30.991,25.486,25.486,37.699,26.722,37.699,26.722,38.354,22.673,38.354,28.188,28.149,24.251,30.91,28.188,25.749,43.569,24.251,38.74,35.975,25.749,34.854,16.346,36.58,42.751,0.0,0.0,0.0,0,1688127063.5785,2023-06-30 14:11:03,Rest
76,0,41.628,45.78,46.202,32.737,37.495,36.436,39.524,37.62,29.047,29.047,40.736,28.745,40.736,28.745,41.902,23.675,41.902,35.332,36.317,27.813,36.515,35.332,34.433,46.599,27.813,40.238,44.136,34.433,35.331,25.551,39.105,49.88,0.0,0.0,0.0,0,1688127063.5863,2023-06-30 14:11:03,Rest
77,0,49.783,55.468,56.914,42.951,43.093,46.645,45.632,43.218,34.141,34.141,52.99,39.987,52.99,39.987,54.155,42.094,54.155,46.568,48.064,39.568,43.651,46.568,44.645,57.311,39.568,50.444,52.289,44.645,46.054,37.821,44.701,57.003,0.0,0.0,0.0,0,1688127063.5941,2023-06-30 14:11:03,Rest
78,0,57.93,63.609,64.03,43.932,49.198,49.673,53.783,45.736,41.791,41.791,59.597,48.656,59.597,48.656,62.298,50.249,62.298,52.157,53.652,44.652,51.292,52.157,49.211,63.914,44.652,57.053,58.384,49.211,55.23,41.882,52.853,63.093,0.0,0.0,0.0,0,1688127063.6019,2023-06-30 14:11:03,Rest
79,0,63.508,67.644,65.502,49.012,54.272,53.209,59.877,53.888,46.36,46.36,60.562,51.169,60.562,51.169,63.773,47.637,63.773,55.691,57.696,48.193,57.9,55.691,52.235,66.923,48.193,62.119,61.4,52.235,59.785,45.426,58.948,71.227,0.0,0.0,0.0,0,1688127063.6097,2023-06-30 14:11:03,Rest
80,0,55.247,61.429,62.363,51.012,50.119,50.594,54.182,52.297,38.629,38.629,56.915,47.019,56.915,47.019,59.098,45.54,59.098,51.536,52.516,45.071,51.695,51.536,45.011,60.197,45.071,59.496,52.117,45.011,53.578,41.795,50.692,64.496,0.0,0.0,0.0,0,1688127063.6175,2023-06-30 14:11:03,Rest
81,0,32.138,38.314,43.858,27.395,31.113,31.588,35.172,27.654,18.098,18.098,37.391,26.992,37.391,26.992,39.059,30.638,39.059,32.017,32.995,19.923,27.052,32.017,22.424,37.595,19.923,37.407,32.597,22.424,29.958,22.797,31.174,38.816,0.0,0.0,0.0,0,1688127063.6254,2023-06-30 14:11:03,Rest
82,0,21.86,23.931,26.908,10.461,18.275,19.774,22.842,13.281,5.785,5.785,22.497,11.596,22.497,11.596,22.626,18.312,22.626,18.665,20.667,4.022,13.705,18.665,11.643,25.774,4.022,22.513,22.318,11.643,16.096,12.528,23.97,26.994,0.0,0.0,0.0,0,1688127063.6332,2023-06-30 14:11:03,Rest
83,0,27.474,33.128,31.491,21.721,25.429,26.414,28.454,23.514,15.513,15.513,29.646,21.318,29.646,21.318,28.239,25.466,28.239,24.794,24.745,16.825,20.864,24.794,17.267,32.408,16.825,28.638,28.444,17.267,25.814,19.688,29.582,35.677,0.0,0.0,0.0,0,1688127063.641,2023-06-30 14:11:03,Rest
84,0,26.421,36.169,38.12,27.847,30.014,26.9,30.475,26.565,20.108,20.108,32.178,27.957,32.178,27.957,33.334,30.563,33.334,26.306,25.232,16.296,22.38,26.306,16.738,32.888,16.296,28.097,29.952,16.738,28.349,20.693,27.503,39.227,0.0,0.0,0.0,0,1688127063.6488,2023-06-30 14:11:03,Rest
85,0,22.297,28.448,32.446,19.623,24.861,20.725,23.785,21.927,9.842,9.842,23.437,19.732,23.437,19.732,25.616,22.848,25.616,17.571,20.084,4.497,13.136,17.571,12.11,28.245,4.497,17.31,22.237,12.11,16.538,13.5,21.328,30.991,0.0,0.0,0.0,0,1688127063.6566,2023-06-30 14:11:03,Rest
86,0,25.86,29.957,29.853,19.603,27.398,21.729,24.273,24.979,11.369,11.369,24.438,21.249,24.438,21.249,22.004,18.215,22.004,15.504,18.527,11.152,12.098,15.504,13.123,31.29,11.152,17.293,21.191,13.123,16.521,15.024,21.818,28.911,0.0,0.0,0.0,0,1688127063.6644,2023-06-30 14:11:03,Rest
87,0,25.322,34.538,35.458,23.682,30.956,24.781,29.372,26.491,20.579,20.579,29.024,24.814,29.024,24.814,26.593,18.196,26.593,20.099,22.607,15.752,19.258,20.099,14.134,32.284,15.752,20.862,27.829,14.134,24.189,19.107,24.871,36.054,0.0,0.0,0.0,0,1688127063.6722,2023-06-30 14:11:03,Rest
88,0,24.785,32.454,36.959,25.195,29.389,25.781,29.855,26.465,17.997,17.997,27.971,22.228,27.971,22.228,30.152,18.69,30.152,21.104,24.121,11.638,21.288,21.104,15.657,30.202,11.638,18.792,29.851,15.657,25.19,20.113,26.895,39.092,0.0,0.0,0.0,0,1688127063.68,2023-06-30 14:11:03,Rest
89,0,30.395,32.421,35.386,26.707,30.896,25.755,27.776,32.586,17.979,17.979,29.48,26.816,29.48,26.816,30.122,19.696,30.122,18.521,20.511,17.261,18.706,18.521,19.227,33.246,17.261,20.822,28.796,19.227,24.652,22.654,27.893,38.028,0.0,0.0,0.0,0,1688127063.6879,2023-06-30 14:11:03,Rest
90,0,27.803,34.438,35.35,23.606,30.865,24.705,27.748,33.066,23.084,23.084,30.475,27.302,30.475,27.302,26.506,17.115,26.506,19.527,20.49,17.756,19.199,19.527,16.647,33.212,17.756,23.363,29.792,16.647,26.165,26.73,28.377,39.015,0.0,0.0,0.0,0,1688127063.6957,2023-06-30 14:11:03,Rest
91,0,21.116,32.354,34.803,22.046,26.736,23.656,26.696,25.348,17.425,17.425,27.37,18.053,27.37,18.053,24.43,14.024,24.43,21.045,23.544,12.103,19.692,21.045,15.093,29.081,12.103,20.266,27.201,15.093,23.577,23.629,27.324,36.926,0.0,0.0,0.0,0,1688127063.7035,2023-06-30 14:11:03,Rest
92,0,25.705,29.248,33.743,23.561,27.221,24.144,25.644,22.761,12.285,12.285,26.831,19.572,26.831,19.572,26.967,16.572,26.967,21.024,23.008,16.19,18.136,21.024,19.176,31.613,16.19,21.782,28.198,19.176,23.553,22.581,26.272,32.791,0.0,0.0,0.0,0,1688127063.7113,2023-06-30 14:11:03,Rest
93,0,36.95,37.928,41.394,28.148,33.342,31.292,32.279,31.96,22.007,22.007,37.05,32.36,37.05,32.36,37.186,25.777,37.186,30.736,31.694,24.883,27.851,30.736,26.33,42.34,24.883,34.056,42.002,26.33,34.801,35.878,33.418,43.517,0.0,0.0,0.0,0,1688127063.7191,2023-06-30 14:11:03,Rest
94,0,49.721,55.821,54.16,38.366,40.993,43.556,46.079,43.711,35.305,35.305,51.358,41.037,51.358,41.037,51.494,38.559,51.494,45.05,48.569,32.03,46.267,45.05,39.111,54.081,32.03,43.756,52.207,39.111,49.11,49.162,47.729,59.867,0.0,0.0,0.0,0,1688127063.7269,2023-06-30 14:11:03,Rest
95,0,46.597,52.691,53.594,35.766,39.928,41.464,41.422,39.057,31.171,31.171,48.232,36.385,48.232,36.385,48.369,36.471,48.369,38.345,42.372,31.486,39.56,38.345,35.998,50.441,31.486,36.54,40.371,35.998,41.889,39.379,45.12,54.172,0.0,0.0,0.0,0,1688127063.7347,2023-06-30 14:11:03,Rest
96,0,22.985,29.585,33.56,15.75,24.006,22.467,17.814,20.574,11.672,11.672,24.618,17.393,24.618,17.393,24.242,15.43,24.242,14.741,17.227,13.524,12.881,14.741,10.347,27.849,13.524,20.109,21.888,10.347,19.818,19.872,24.07,33.625,4096.0,0.0,0.0,0,1688127063.7425,2023-06-30 14:11:03,Rest
97,0,13.74,22.383,20.207,9.587,15.273,14.76,11.649,11.845,2.951,2.951,15.372,4.568,15.372,4.568,13.971,3.631,13.971,7.041,10.55,2.239,4.671,7.041,3.164,17.062,2.239,15.478,18.792,3.164,13.138,16.266,14.312,23.346,4096.0,0.0,0.0,0,1688127063.7504,2023-06-30 14:11:03,Rest
98,0,26.022,28.508,27.871,17.774,21.405,21.405,21.883,16.444,9.608,9.608,24.578,10.711,24.578,10.711,26.253,10.288,26.253,15.231,16.687,11.459,14.4,15.231,16.993,26.779,11.459,22.635,25.433,16.993,21.322,22.91,21.983,26.908,4096.0,0.0,0.0,0,1688127063.7582,2023-06-30 14:11:03,Rest
99,0,31.119,30.529,37.065,19.806,26.507,22.92,27.497,21.55,16.258,16.258,29.677,20.434,29.677,20.434,33.911,20.011,33.911,22.388,21.281,18.107,20.533,22.388,19.538,34.437,18.107,26.711,29.506,19.538,25.911,27.498,27.596,35.591,4096.0,0.0,0.0,0,1688127063.766,2023-06-30 14:11:03,Rest
100,0,37.748,41.769,43.688,29.007,34.677,31.607,35.154,33.312,27.513,27.513,36.819,31.172,36.819,31.172,39.0,33.311,39.0,35.686,36.629,25.261,33.321,35.686,26.178,39.526,25.261,30.783,38.698,26.178,34.082,37.717,36.278,45.801,4096.0,0.0,0.0,0,1688127063.7738,2023-06-30 14:11:03,Rest
101,0,54.616,58.121,56.452,44.86,48.987,47.969,48.439,50.697,46.441,46.441,53.176,47.023,53.176,47.023,54.843,49.672,54.843,51.019,55.035,41.63,51.218,51.019,46.132,53.318,41.63,42.023,53.517,46.132,49.93,50.487,51.611,57.026,4096.0,0.0,0.0,0,1688127063.7816,2023-06-30 14:11:03,Rest
102,0,55.586,56.014,61.006,41.229,47.914,47.921,50.44,52.183,48.956,48.956,57.734,49.537,57.734,49.537,59.911,52.696,59.911,51.481,53.956,44.662,52.191,51.481,47.623,58.9,44.662,46.591,57.562,47.623,53.466,52.485,56.682,60.555,4096.0,0.0,0.0,0,1688127063.7894,2023-06-30 14:11:03,Rest
103,0,44.26,44.175,49.674,30.941,35.57,37.627,42.192,36.762,33.025,33.025,47.43,38.729,47.43,38.729,46.531,43.422,46.531,41.183,43.143,31.81,36.77,41.183,32.206,48.595,31.81,35.786,46.233,32.206,42.142,44.236,45.867,48.712,4096.0,0.0,0.0,0,1688127063.7972,2023-06-30 14:11:03,Rest
104,0,41.142,39.008,39.378,30.91,32.461,33.491,34.978,28.016,24.795,24.795,40.723,31.518,40.723,31.518,39.312,35.181,39.312,30.896,35.928,24.093,26.487,30.896,26.026,39.837,24.093,26.017,36.453,26.026,32.366,34.458,34.038,37.905,4096.0,0.0,0.0,0,1688127063.805,2023-06-30 14:11:03,Rest
105,0,39.051,40.506,41.388,33.441,34.478,32.433,32.381,33.111,27.845,27.845,40.17,28.925,40.17,28.925,40.298,32.585,40.298,28.303,33.843,22.532,30.047,28.303,26.512,40.31,22.532,25.478,35.392,26.512,33.358,32.886,34.004,45.551,4096.0,0.0,0.0,0,1688127063.8129,2023-06-30 14:11:03,Rest
106,0,36.963,43.539,44.933,32.895,33.419,32.4,35.423,36.151,24.231,24.231,39.617,25.822,39.617,25.822,38.208,32.04,38.208,33.398,35.858,24.047,33.603,33.398,26.486,41.294,24.047,25.965,35.357,26.486,36.911,37.977,39.093,50.629,4096.0,0.0,0.0,0,1688127063.8207,2023-06-30 14:11:03,Rest
107,0,33.34,37.348,37.716,23.129,26.725,28.782,31.801,23.308,11.911,11.911,32.917,19.137,32.917,19.137,30.998,23.298,30.998,26.192,28.138,21.973,22.811,26.192,21.848,33.568,21.973,19.792,32.247,21.848,29.702,34.865,32.394,36.234,4096.0,0.0,0.0,0,1688127063.8285,2023-06-30 14:11:03,Rest
108,0,23.06,24.503,25.895,10.81,17.989,17.482,19.474,9.452,5.239,5.239,21.614,9.384,21.614,9.384,22.257,10.467,22.257,9.26,12.228,10.168,9.98,9.26,11.58,23.289,10.168,12.087,27.604,11.58,19.426,24.072,19.042,24.414,4096.0,0.0,0.0,0,1688127063.8363,2023-06-30 14:11:03,Rest
109,0,21.5,24.478,26.894,15.41,18.484,15.928,20.991,16.103,11.381,11.381,22.104,10.399,22.104,10.399,21.723,9.432,21.723,10.788,13.24,8.109,12.532,10.788,10.032,27.364,8.109,14.637,26.552,10.032,21.456,25.584,20.047,30.538,4096.0,0.0,0.0,0,1688127063.8441,2023-06-30 14:11:03,Rest
110,0,27.114,31.114,34.551,22.567,23.588,24.109,27.118,25.82,15.981,15.981,29.767,16.536,29.767,16.536,27.849,15.571,27.849,21.023,22.961,16.298,18.155,21.023,15.657,32.46,16.298,20.77,27.038,15.657,22.459,33.243,25.663,37.167,4096.0,0.0,0.0,0,1688127063.8519,2023-06-30 14:11:03,Rest
111,0,19.403,25.959,29.394,14.86,19.466,22.548,19.406,18.11,11.866,11.866,25.639,11.397,25.639,11.397,23.21,10.432,23.21,14.342,18.327,12.183,13.013,14.342,12.568,22.181,12.183,14.601,22.912,12.568,15.776,27.575,21.538,31.494,4096.0,0.0,0.0,0,1688127063.8597,2023-06-30 14:11:03,Rest
112,0,19.383,25.421,28.34,15.357,21.496,20.476,20.412,15.018,13.391,13.391,22.539,12.41,22.539,12.41,21.65,10.421,21.65,13.815,18.821,13.708,15.05,13.815,14.092,22.671,13.708,12.537,24.426,14.092,20.884,24.473,26.128,30.438,4096.0,0.0,0.0,0,1688127063.8675,2023-06-30 14:11:03,Rest
113,0,37.295,38.203,42.656,29.686,32.745,30.702,37.297,28.835,24.137,24.137,37.374,28.791,37.374,28.791,38.022,28.854,38.022,31.22,35.196,32.137,31.428,31.22,28.935,41.604,32.137,27.894,39.771,28.935,36.232,38.793,42.495,40.142,4096.0,0.0,0.0,0,1688127063.8754,2023-06-30 14:11:03,Rest
114,0,36.745,40.214,44.663,30.681,30.151,32.72,38.285,32.905,25.649,25.649,41.435,31.324,41.435,31.324,39.521,35.998,39.521,31.701,35.161,30.568,31.909,31.701,30.955,42.074,30.568,32.989,44.855,30.955,34.659,43.365,42.965,43.175,4096.0,0.0,0.0,0,1688127063.8832,2023-06-30 14:11:03,Rest
115,0,18.777,27.879,31.298,18.868,20.899,22.954,23.902,20.064,15.89,15.89,25.512,17.46,25.512,17.46,20.014,23.666,20.014,14.763,17.707,11.582,14.971,14.763,15.043,24.614,11.582,19.124,26.367,15.043,19.767,27.953,26.016,33.398,4096.0,0.0,0.0,0,1688127063.891,2023-06-30 14:11:03,Rest
116,0,20.296,24.777,30.242,16.8,23.44,19.857,21.829,18.507,13.312,13.312,21.388,16.418,21.388,16.418,20.506,24.155,20.506,14.236,17.177,11.571,13.932,14.236,11.442,24.589,11.571,18.08,17.119,11.442,18.21,23.826,22.404,27.73,4096.0,0.0,0.0,0,1688127063.8988,2023-06-30 14:11:03,Rest
117,0,32.058,30.9,37.896,21.906,27.515,27.009,28.979,27.198,21.496,21.496,32.637,24.086,32.637,24.086,32.781,32.328,32.781,23.956,26.894,19.756,25.189,23.956,20.652,35.835,19.756,27.796,28.885,20.652,27.926,35.586,32.115,33.85,4096.0,0.0,0.0,0,1688127063.9066,2023-06-30 14:11:03,Rest
118,0,29.977,32.406,37.859,21.372,24.926,29.544,30.999,25.634,23.011,23.011,34.141,23.038,34.141,23.038,31.724,23.586,31.724,23.42,25.843,18.712,22.602,23.42,22.168,35.287,18.712,27.256,35.004,22.168,29.947,38.112,33.108,38.939,4096.0,0.0,0.0,0,1688127063.9144,2023-06-30 14:11:03,Rest
119,0,28.41,31.349,35.259,21.35,24.389,25.928,28.407,21.51,16.841,16.841,30.009,20.965,30.009,20.965,31.692,16.902,31.692,20.835,24.28,18.181,18.481,20.835,19.072,31.154,18.181,24.667,29.333,19.072,27.356,35.512,28.464,38.388,4096.0,0.0,0.0,0,1688127063.9222,2023-06-30 14:11:03,Rest
120,0,31.456,33.879,36.761,25.94,24.876,25.39,26.842,25.074,17.848,17.848,29.979,22.994,29.979,22.994,33.197,23.033,33.197,21.838,26.305,18.675,24.098,21.838,20.077,32.659,18.675,28.229,27.767,20.077,30.915,38.55,30.485,37.325,4096.0,0.0,0.0,0,1688127063.93,2023-06-30 14:11:03,Rest
121,0,26.301,33.845,33.65,23.352,23.315,23.315,25.79,21.975,18.855,18.855,24.826,16.311,24.826,16.311,22.918,15.838,22.918,16.693,18.594,13.533,19.463,16.693,16.471,29.553,13.533,24.102,26.202,16.471,27.81,34.926,29.43,34.726,4096.0,0.0,0.0,0,1688127063.9379,2023-06-30 14:11:03,Rest
122,0,20.639,25.615,25.42,15.644,20.73,19.194,22.178,14.269,10.127,10.127,17.629,6.561,17.629,6.561,16.747,3.014,16.747,8.992,11.403,7.884,9.197,8.992,9.282,20.302,7.884,12.807,22.078,9.282,17.536,28.231,21.203,30.08,4096.0,0.0,0.0,0,1688127063.9457,2023-06-30 14:11:03,Rest
123,0,24.717,26.101,27.443,17.678,21.221,20.711,21.131,18.353,9.092,9.092,20.685,9.628,20.685,9.628,24.927,9.671,24.927,11.545,18.051,8.901,16.873,11.545,12.347,23.868,8.901,13.819,26.666,12.347,19.568,33.838,22.207,32.099,4096.0,0.0,0.0,0,1688127063.9535,2023-06-30 14:11:03,Rest
124,0,26.229,34.272,35.613,23.295,23.249,23.252,25.721,23.458,18.305,18.305,27.836,15.254,27.836,15.254,26.952,14.272,26.952,14.607,20.083,12.478,23.516,14.607,18.482,33.065,12.478,22.514,29.713,18.482,26.208,40.464,27.82,38.215,4096.0,0.0,0.0,0,1688127063.9613,2023-06-30 14:11:03,Rest
125,0,15.957,25.529,25.331,15.075,17.078,16.569,21.084,11.651,10.602,10.602,20.124,4.992,20.124,4.992,13.605,-3.673,13.605,3.834,5.206,5.805,5.561,3.834,7.193,21.249,5.805,12.246,18.925,7.193,14.399,29.153,17.546,28.955,4096.0,0.0,0.0,0,1688127063.9691,2023-06-30 14:11:03,Rest
126,0,3.133,8.085,9.937,3.277,5.791,6.306,6.206,-0.143,-7.339,-7.339,4.222,-7.82,4.222,-7.82,2.32,-15.452,2.32,-8.978,-6.583,-9.57,-9.301,-8.978,-8.696,3.809,-9.57,-5.697,6.099,-8.696,1.064,15.291,2.159,12.02,4096.0,0.0,0.0,0,1688127063.9769,2023-06-30 14:11:03,Rest
127,0,4.667,10.126,13.513,4.298,7.322,6.3,6.2,4.467,-5.283,-5.283,5.243,-3.202,5.243,-3.202,6.416,-7.752,6.416,-6.407,-0.428,-9.048,-2.119,-6.407,-3.564,8.929,-9.048,-0.056,4.556,-3.564,4.65,18.862,4.718,12.008,4096.0,0.0,0.0,0,1688127063.9847,2023-06-30 14:11:03,Rest
0,0,17.983,22.923,24.258,15.053,19.098,13.978,19.514,14.197,11.116,11.116,19.07,4.486,19.07,4.486,17.169,-2.109,17.169,4.87,8.794,6.331,8.129,4.87,9.76,22.24,6.331,16.338,14.797,9.76,15.403,33.188,19.571,24.291,0.0,0.0,0.0,0,1688127063.9925,2023-06-30 14:11:03,Rest
1,0,26.161,30.073,31.918,24.259,25.738,22.673,26.667,22.38,18.277,18.277,26.223,8.58,26.223,8.58,24.836,0.967,24.836,15.111,14.42,14.009,17.855,15.111,16.922,27.853,14.009,21.957,30.664,16.922,27.171,41.864,28.773,34.001,0.0,0.0,0.0,0,1688127064.0004,2023-06-30 14:11:04,Rest
2,0,34.332,44.387,45.719,31.919,33.91,32.385,34.325,34.653,24.919,24.919,35.931,22.916,35.931,22.916,35.57,16.335,35.57,27.392,27.213,21.679,34.743,27.392,32.275,38.071,21.679,28.595,42.416,32.275,37.902,50.531,37.965,46.262,0.0,0.0,0.0,0,1688127064.0082,2023-06-30 14:11:04,Rest
3,0,49.667,58.175,55.919,41.109,47.196,42.598,48.123,46.913,36.677,36.677,49.215,37.75,49.215,37.75,49.366,32.201,49.366,39.66,42.555,36.515,46.491,39.66,47.612,51.353,36.515,40.349,49.034,47.612,46.061,62.776,50.735,59.024,0.0,0.0,0.0,0,1688127064.016,2023-06-30 14:11:04,Rest
4,0,53.204,52.994,54.326,44.654,48.685,45.117,50.124,46.866,39.202,39.202,47.629,37.712,47.629,37.712,50.854,32.168,50.854,42.694,45.587,37.503,42.859,42.694,41.416,53.351,37.503,39.796,51.546,41.416,49.601,64.763,51.709,58.452,0.0,0.0,0.0,0,1688127064.0238,2023-06-30 14:11:04,Rest
5,0,45.466,47.818,54.272,39.999,41.464,41.998,43.414,40.159,37.114,37.114,43.483,36.138,43.483,36.138,45.68,30.599,45.68,38.553,40.93,31.318,40.766,38.553,36.252,49.199,31.318,34.634,50.983,36.252,45.966,56.501,46.022,54.296,0.0,0.0,0.0,0,1688127064.0316,2023-06-30 14:11:04,Rest
6,0,47.47,55.967,57.291,40.983,41.935,42.981,47.469,43.705,42.712,42.712,52.148,39.175,52.148,39.175,49.733,36.204,49.733,39.539,41.914,37.946,45.336,39.539,45.437,50.175,37.946,37.161,51.956,45.437,45.407,56.444,48.537,56.803,0.0,0.0,0.0,0,1688127064.0394,2023-06-30 14:11:04,Rest
7,0,47.934,52.325,52.111,40.942,42.406,42.426,47.421,45.711,41.132,41.132,46.973,35.55,46.973,35.55,47.634,35.143,47.634,36.938,39.823,36.371,39.143,36.938,39.244,46.538,36.371,34.562,47.293,39.244,45.362,54.339,44.903,53.672,0.0,0.0,0.0,0,1688127064.0472,2023-06-30 14:11:04,Rest
8,0,33.03,37.928,42.837,29.118,33.654,31.112,33.542,32.858,27.259,27.259,29.508,27.317,29.508,27.317,33.242,25.887,33.242,23.581,28.512,20.454,25.784,23.581,22.811,35.733,20.454,25.306,31.877,22.811,34.558,38.915,30.001,40.298,0.0,0.0,0.0,0,1688127064.055,2023-06-30 14:11:04,Rest
9,0,31.46,41.476,41.77,27.04,32.596,29.032,32.996,30.776,28.256,28.256,34.601,29.852,34.601,29.852,35.258,26.373,35.258,23.557,28.484,21.97,29.345,23.557,27.911,36.722,21.97,28.354,30.82,27.911,30.425,39.389,32.532,41.795,0.0,0.0,0.0,0,1688127064.0629,2023-06-30 14:11:04,Rest
10,0,45.773,52.705,48.388,41.87,41.272,40.786,46.283,45.089,41.036,41.036,48.399,38.531,48.399,38.531,48.542,34.031,48.542,34.804,38.189,30.145,39.049,34.804,35.055,48.469,30.145,39.597,46.671,35.055,42.69,57.28,44.795,57.635,0.0,0.0,0.0,0,1688127064.0707,2023-06-30 14:11:04,Rest
11,0,39.067,43.431,45.266,37.73,37.645,36.647,40.089,40.433,32.798,32.798,36.567,31.833,36.567,31.833,38.76,27.85,38.76,24.523,28.417,17.819,27.739,24.523,21.188,39.711,17.819,32.897,38.428,21.188,36.5,51.075,31.943,51.43,0.0,0.0,0.0,0,1688127064.0785,2023-06-30 14:11:04,Rest
12,0,20.073,28.531,30.876,17.712,22.75,19.704,20.581,20.925,14.834,14.834,19.112,13.358,19.112,13.358,18.741,12.453,18.741,6.568,10.97,6.019,10.293,6.568,10.921,19.179,6.019,13.396,15.848,10.921,15.971,27.458,15.005,30.373,0.0,0.0,0.0,0,1688127064.0863,2023-06-30 14:11:04,Rest
13,0,19.54,27.478,25.722,17.182,20.678,18.147,19.536,18.855,13.282,13.282,20.63,7.709,20.63,7.709,17.185,6.805,17.185,10.148,14.033,8.574,11.82,10.148,12.959,20.184,8.574,9.797,19.418,12.959,18.004,25.893,19.6,29.831,0.0,0.0,0.0,0,1688127064.0941,2023-06-30 14:11:04,Rest
14,0,15.934,24.376,24.672,18.189,21.682,19.154,21.053,16.787,9.683,9.683,17.536,7.701,17.536,7.701,14.607,2.187,14.607,7.064,11.458,0.881,7.709,7.064,4.237,22.213,0.881,11.836,22.472,4.237,19.011,28.941,15.995,30.826,0.0,0.0,0.0,0,1688127064.1019,2023-06-30 14:11:04,Rest
15,0,-4.061,6.934,8.253,-0.784,5.779,2.741,1.052,-1.16,-9.282,-9.282,-1.437,-9.213,-1.437,-9.213,-3.851,-15.234,-3.851,-18.046,-13.145,-17.051,-16.377,-18.046,-12.161,-0.35,-17.051,-4.057,0.421,-12.161,-2.525,9.445,-4.001,10.302,0.0,0.0,0.0,0,1688127064.1097,2023-06-30 14:11:04,Rest
16,0,-12.254,-4.344,-3.026,-9.493,-4.985,-7.508,-11.757,-10.381,-17.47,-17.47,-10.657,-25.085,-10.657,-25.085,-12.556,-26.489,-12.556,-26.738,-22.353,-21.645,-25.582,-26.738,-17.784,-12.133,-21.645,-17.885,-8.801,-17.784,-12.256,-2.86,-10.657,-0.979,0.0,0.0,0.0,0,1688127064.1175,2023-06-30 14:11:04,Rest
17,0,-7.119,-1.778,0.051,-4.36,-0.882,-4.427,-4.06,-8.321,-13.866,-13.866,-6.036,-20.449,-6.036,-20.449,-8.958,-21.852,-8.958,-18.002,-13.109,-19.574,-19.409,-18.002,-18.279,-3.924,-19.574,-14.794,-4.694,-18.279,-7.633,2.778,-7.06,5.17,0.0,0.0,0.0,0,1688127064.1254,2023-06-30 14:11:04,Rest
18,0,-12.747,-4.85,-4.56,-10.504,-4.979,-9.033,-6.618,-13.436,-21.537,-21.537,-11.153,-19.916,-11.153,-19.916,-14.072,-22.342,-14.072,-23.619,-19.244,-25.189,-26.561,-23.619,-21.847,-9.556,-25.189,-16.316,-14.423,-21.847,-14.286,-2.86,-13.713,-1.495,0.0,0.0,0.0,0,1688127064.1332,2023-06-30 14:11:04,Rest
19,0,-18.37,-11.506,-9.678,-17.153,-11.122,-13.635,-17.37,-18.033,-28.175,-28.175,-18.826,-27.581,-18.826,-27.581,-18.668,-29.492,-18.668,-29.743,-25.884,-26.701,-32.683,-29.743,-23.362,-19.792,-26.701,-19.885,-15.946,-23.362,-19.395,-11.566,-18.31,-10.715,0.0,0.0,0.0,0,1688127064.141,2023-06-30 14:11:04,Rest
20,0,-12.716,-8.42,-3.521,-11.501,-6.5,-9.523,-13.254,-16.478,-20.975,-20.975,-14.709,-24.48,-14.709,-24.48,-15.064,-25.877,-15.064,-24.078,-18.686,-20.527,-25.99,-24.078,-22.314,-13.625,-20.527,-15.767,-8.245,-22.314,-14.252,-6.944,-15.218,-5.069,0.0,0.0,0.0,0,1688127064.1488,2023-06-30 14:11:04,Rest
21,0,-15.265,-9.436,-6.591,-11.489,-7.006,-13.612,-11.704,-17.486,-19.417,-19.417,-13.67,-21.381,-13.67,-21.381,-16.585,-21.24,-16.585,-27.128,-22.766,-23.58,-28.525,-27.128,-24.341,-12.586,-23.58,-18.313,-16.946,-24.341,-18.336,-10.523,-19.814,-5.064,0.0,0.0,0.0,0,1688127064.1566,2023-06-30 14:11:04,Rest
22,0,-22.422,-14.038,-12.732,-14.039,-10.073,-17.696,-16.303,-19.518,-22.471,-22.471,-19.292,-25.971,-19.292,-25.971,-19.643,-24.293,-19.643,-34.273,-29.916,-28.68,-34.645,-34.273,-25.341,-19.746,-28.68,-20.856,-21.54,-25.341,-22.416,-18.197,-24.917,-10.694,0.0,0.0,0.0,0,1688127064.1644,2023-06-30 14:11:04,Rest
23,0,-14.203,-7.364,-3.498,-8.902,-1.866,-8.969,-9.114,-14.376,-12.203,-12.203,-14.149,-20.309,-14.149,-20.309,-13.988,-23.244,-13.988,-24.505,-18.615,-20.454,-25.901,-24.505,-21.73,-13.066,-20.454,-12.126,-8.711,-21.73,-12.66,-9.47,-16.183,-5.561,0.0,0.0,0.0,0,1688127064.1722,2023-06-30 14:11:04,Rest
24,0,-9.065,-5.819,-2.982,-10.942,-3.913,-7.936,-6.543,-12.824,-9.117,-9.117,-9.524,-15.678,-9.524,-15.678,-12.437,-20.659,-12.437,-20.894,-17.059,-19.921,-24.338,-20.894,-22.22,-8.955,-19.921,-15.7,-10.239,-22.22,-10.598,-6.899,-15.654,-5.043,0.0,0.0,0.0,0,1688127064.18,2023-06-30 14:11:04,Rest
25,0,-25.45,-20.67,-19.373,-21.69,-17.741,-20.223,-20.881,-23.57,-24.989,-24.989,-20.273,-30.007,-20.273,-30.007,-23.695,-28.835,-23.695,-36.755,-34.973,-35.271,-41.732,-36.755,-32.956,-22.778,-35.271,-32.591,-25.598,-32.956,-26.982,-22.774,-33.057,-18.358,0.0,0.0,0.0,0,1688127064.1879,2023-06-30 14:11:04,Rest
26,0,-37.208,-29.359,-26.526,-27.304,-20.285,-27.888,-29.057,-31.743,-34.698,-34.698,-30.499,-40.736,-30.499,-40.736,-33.405,-36.491,-33.405,-45.94,-40.061,-43.432,-52.961,-45.94,-41.633,-35.051,-43.432,-37.169,-34.282,-41.633,-37.201,-31.972,-40.709,-26.024,0.0,0.0,0.0,0,1688127064.1957,2023-06-30 14:11:04,Rest
27,0,-29.486,-24.719,-22.401,-27.276,-17.191,-27.348,-26.979,-28.125,-31.077,-31.077,-29.444,-35.06,-29.444,-35.06,-32.86,-31.844,-32.86,-38.721,-32.336,-40.315,-45.736,-38.721,-40.054,-31.942,-40.315,-32.008,-35.272,-40.054,-33.577,-28.866,-34.008,-22.412,0.0,0.0,0.0,0,1688127064.2035,2023-06-30 14:11:04,Rest
28,0,-22.284,-18.034,-19.305,-22.638,-15.637,-22.197,-24.903,-21.437,-26.948,-26.948,-22.754,-29.389,-22.754,-29.389,-25.654,-21.566,-25.654,-33.047,-30.255,-34.639,-38.518,-33.047,-33.354,-23.713,-34.639,-28.39,-31.65,-33.354,-26.371,-25.251,-33.462,-17.779,0.0,0.0,0.0,0,1688127064.2113,2023-06-30 14:11:04,Rest
29,0,-26.873,-16.479,-18.773,-21.079,-12.548,-21.15,-23.341,-22.953,-26.921,-26.921,-22.219,-31.409,-22.219,-31.409,-24.092,-25.643,-24.092,-38.137,-32.274,-32.555,-43.602,-38.137,-32.296,-24.202,-32.555,-27.85,-30.082,-32.296,-26.345,-24.202,-37.014,-19.81,0.0,0.0,0.0,0,1688127064.2191,2023-06-30 14:11:04,Rest
30,0,-34.018,-25.684,-23.878,-30.791,-21.757,-29.838,-26.904,-32.151,-35.091,-35.091,-29.882,-40.087,-29.882,-40.087,-32.777,-42.523,-32.777,-47.833,-39.926,-40.207,-51.756,-47.833,-38.412,-32.887,-40.207,-35.506,-34.663,-38.412,-34.003,-26.227,-34.416,-25.426,0.0,0.0,0.0,0,1688127064.2269,2023-06-30 14:11:04,Rest
31,0,-35.521,-29.245,-26.415,-32.81,-30.444,-30.321,-29.951,-37.755,-40.691,-40.691,-33.95,-46.194,-33.95,-46.194,-37.355,-49.141,-37.355,-48.297,-46.546,-43.241,-49.655,-48.297,-40.422,-35.415,-43.241,-37.008,-33.603,-40.422,-34.994,-25.176,-32.332,-23.863,0.0,0.0,0.0,0,1688127064.2347,2023-06-30 14:11:04,Rest
32,0,-29.85,-16.92,-18.192,-22.019,-19.143,-22.094,-23.773,-30.032,-33.478,-33.478,-27.256,-39.488,-27.256,-39.488,-31.17,-40.894,-31.17,-39.028,-38.303,-30.39,-40.384,-39.028,-33.21,-27.183,-30.39,-25.188,-26.91,-33.21,-24.713,-17.978,-30.251,-14.106,3968.0,0.0,0.0,0,1688127064.2425,2023-06-30 14:11:04,Rest
33,0,-23.673,-12.292,-13.051,-19.947,-10.927,-23.096,-19.651,-23.342,-29.858,-29.858,-21.594,-31.252,-21.594,-31.252,-24.991,-33.681,-24.991,-32.841,-28.531,-24.724,-36.245,-32.841,-27.029,-20.496,-24.724,-23.113,-24.834,-27.029,-21.102,-15.399,-24.073,-10.505,3968.0,0.0,0.0,0,1688127064.2504,2023-06-30 14:11:04,Rest
34,0,-19.038,-16.891,-14.062,-22.489,-15.014,-20.511,-18.094,-25.88,-32.902,-32.902,-19.523,-28.659,-19.523,-28.659,-18.818,-28.012,-18.818,-29.222,-25.428,-24.7,-34.159,-29.222,-23.928,-17.914,-24.7,-27.701,-20.71,-23.928,-21.593,-16.92,-19.95,-11.007,3968.0,0.0,0.0,0,1688127064.2582,2023-06-30 14:11:04,Rest
35,0,-11.334,-7.14,-8.413,-15.806,-11.925,-7.683,-9.367,-22.781,-24.672,-24.672,-13.356,-21.458,-13.356,-21.458,-12.14,-15.689,-12.14,-20.483,-16.181,-14.429,-24.391,-20.483,-15.707,-11.236,-14.429,-18.452,-11.468,-15.707,-12.35,-11.268,-16.344,-4.848,3968.0,0.0,0.0,0,1688127064.266,2023-06-30 14:11:04,Rest
36,0,-7.737,-0.473,-0.207,-11.692,-7.815,-6.139,-6.796,-15.073,-15.938,-15.938,-7.707,-16.826,-7.707,-16.826,-9.566,-10.55,-9.566,-12.778,-8.993,-7.242,-15.145,-12.778,-8.007,-6.102,-7.242,-8.699,-4.797,-8.007,-5.165,-4.597,-9.155,-1.257,4096.0,0.0,0.0,0,1688127064.2738,2023-06-30 14:11:04,Rest
37,0,-7.729,-5.596,0.817,-13.217,-9.344,-10.231,-10.888,-15.058,-17.972,-17.972,-7.699,-17.834,-7.699,-17.834,-8.019,-12.589,-8.019,-12.253,-12.058,-10.821,-17.179,-12.253,-11.073,-6.095,-10.821,-10.228,-1.718,-11.073,-8.234,-4.08,-4.536,-4.842,4096.0,0.0,0.0,0,1688127064.2816,2023-06-30 14:11:04,Rest
38,0,-4.648,-1.492,1.841,-11.667,-6.773,-4.585,-7.291,-14.531,-16.417,-16.417,-6.667,-13.717,-6.667,-13.717,-5.962,-7.965,-5.962,-13.266,-12.046,-10.81,-18.699,-13.266,-14.135,-5.065,-10.81,-11.242,-4.278,-14.135,-7.714,-5.1,-7.093,-1.251,4096.0,0.0,0.0,0,1688127064.2894,2023-06-30 14:11:04,Rest
39,0,-6.18,1.584,3.889,-10.631,-3.693,-4.581,-5.747,-12.467,-9.74,-9.74,-5.123,-9.093,-5.123,-9.093,-6.981,-2.834,-6.981,-13.252,-9.472,-10.287,-15.607,-13.252,-13.609,-4.547,-10.287,-10.718,-8.884,-13.609,-7.706,-7.144,-10.159,2.848,4096.0,0.0,0.0,0,1688127064.2972,2023-06-30 14:11:04,Rest
40,0,-11.297,-3.541,3.372,-7.546,-2.664,-8.162,-7.79,-10.918,-6.145,-6.145,-5.118,-10.108,-5.118,-10.108,-8.511,-4.368,-8.511,-11.702,-9.975,-9.252,-14.566,-11.702,-13.083,-4.543,-9.252,-11.732,-5.801,-13.083,-10.772,-8.162,-7.588,-0.228,4096.0,0.0,0.0,0,1688127064.305,2023-06-30 14:11:04,Rest
41,0,-8.212,-0.976,3.881,-2.416,-0.612,-2.519,-2.659,-4.759,-2.552,-2.552,-4.601,-6.0,-4.601,-6.0,-8.502,-4.876,-8.502,-9.641,-10.477,-7.706,-16.089,-9.641,-11.021,-4.538,-7.706,-12.233,-3.746,-11.021,-9.224,-5.08,-4.506,0.797,4096.0,0.0,0.0,0,1688127064.3129,2023-06-30 14:11:04,Rest
42,0,-13.327,-3.536,-2.27,-11.123,-4.71,-7.639,-7.78,-5.779,-5.624,-5.624,-12.281,-8.555,-12.281,-8.555,-14.641,-7.433,-14.641,-19.365,-18.664,-19.481,-24.27,-19.365,-16.645,-12.218,-19.481,-19.393,-15.526,-16.645,-14.85,-12.759,-15.26,-5.352,4096.0,0.0,0.0,0,1688127064.3207,2023-06-30 14:11:04,Rest
43,0,-31.244,-21.464,-16.613,-25.456,-13.927,-23.001,-23.653,-21.655,-13.815,-13.815,-26.613,-20.842,-26.613,-20.842,-26.41,-16.647,-26.41,-34.203,-30.94,-35.856,-38.59,-34.203,-29.948,-25.014,-35.856,-31.157,-27.806,-29.948,-30.205,-28.628,-31.126,-25.839,3968.0,0.0,0.0,0,1688127064.3285,2023-06-30 14:11:04,Rest
44,0,-26.09,-20.418,-14.547,-19.795,-14.425,-19.392,-18.507,-22.145,-10.727,-10.727,-24.537,-16.723,-24.537,-16.723,-24.847,-13.044,-24.847,-29.558,-24.762,-29.672,-35.477,-29.558,-25.82,-21.915,-29.672,-26.002,-19.069,-25.82,-27.101,-22.964,-24.435,-23.251,3968.0,0.0,0.0,0,1688127064.3363,2023-06-30 14:11:04,Rest
45,0,-4.034,1.632,6.472,-4.406,-3.653,-2.979,0.98,-3.168,2.091,2.091,-4.533,0.2,-4.533,0.2,-6.891,-1.248,-6.891,-10.061,-5.782,-7.613,-13.413,-10.061,-7.351,-2.425,-7.613,-9.07,0.418,-7.351,-4.532,0.113,-1.869,5.973,4096.0,0.0,0.0,0,1688127064.3441,2023-06-30 14:11:04,Rest
46,0,-0.957,7.266,15.688,-0.816,3.011,1.123,3.54,3.495,3.114,3.114,3.156,-0.825,3.156,-0.825,1.313,-4.833,1.313,-4.928,-0.14,-0.946,-4.178,-4.928,-1.196,4.749,-0.946,-3.426,7.59,-1.196,1.62,6.772,5.817,13.14,4096.0,0.0,0.0,0,1688127064.3519,2023-06-30 14:11:04,Rest
47,0,-4.542,5.209,11.573,-1.327,0.959,1.122,-1.587,-2.656,-5.086,-5.086,-2.482,-8.509,-2.482,-8.509,-3.811,-13.025,-3.811,-6.972,-2.19,-6.58,-7.76,-6.972,-0.682,0.646,-6.58,-6.496,4.509,-0.682,-1.968,3.18,2.737,2.88,4096.0,0.0,0.0,0,1688127064.3597,2023-06-30 14:11:04,Rest
48,0,5.709,15.45,17.197,5.846,7.618,8.293,5.587,4.519,1.066,1.066,6.229,0.721,6.229,0.721,2.852,-3.791,2.852,2.769,5.497,2.648,-0.067,2.769,8.027,8.842,2.648,-0.854,9.627,8.027,7.256,12.398,10.419,13.124,4096.0,0.0,0.0,0,1688127064.3675,2023-06-30 14:11:04,Rest
49,0,12.363,21.07,24.865,11.476,18.369,12.383,13.266,14.248,10.799,10.799,18.006,10.967,18.006,10.967,13.096,6.972,13.096,8.914,13.176,15.965,10.179,8.914,11.093,17.543,15.965,8.368,15.253,11.093,14.933,22.632,16.557,24.894,4096.0,0.0,0.0,0,1688127064.3754,2023-06-30 14:11:04,Rest
50,0,3.129,10.803,16.131,3.268,7.592,4.686,5.056,2.963,0.542,0.542,6.718,-0.315,6.718,-0.315,3.861,-2.257,3.861,-1.854,2.405,1.605,-1.102,-1.854,-0.189,6.767,1.605,1.187,7.553,-0.189,4.672,11.338,5.782,11.036,4096.0,0.0,0.0,0,1688127064.3832,2023-06-30 14:11:04,Rest
51,0,-10.706,-0.479,4.844,-10.056,-8.81,-5.052,-9.293,-13.946,-13.291,-13.291,-8.658,-16.196,-8.658,-16.196,-10.487,-16.087,-10.487,-16.196,-16.041,-17.864,-19.032,-16.196,-12.996,-9.122,-17.864,-14.183,-4.238,-12.996,-10.189,-5.579,-9.081,-3.319,4096.0,0.0,0.0,0,1688127064.391,2023-06-30 14:11:04,Rest
52,0,-12.232,-2.015,4.839,-10.046,-5.215,-5.56,-10.309,-12.907,-10.203,-10.203,-7.113,-16.18,-7.113,-16.18,-9.965,-15.046,-9.965,-16.692,-15.512,-10.674,-17.476,-16.692,-10.422,-8.088,-10.674,-12.12,-4.233,-10.422,-11.204,-3.012,-8.56,-0.754,3968.0,0.0,0.0,0,1688127064.3988,2023-06-30 14:11:04,Rest
53,0,-0.437,6.184,10.469,-1.326,1.451,1.106,-0.052,-3.16,-3.533,-3.533,-1.47,-4.381,-1.47,-4.381,-1.758,-7.347,-1.758,-7.454,-2.689,1.119,-6.188,-7.454,-0.165,2.679,1.119,0.188,4.48,-0.165,0.59,9.799,3.232,5.394,4096.0,0.0,0.0,0,1688127064.4066,2023-06-30 14:11:04,Rest
54,0,2.637,11.813,13.02,-0.813,-0.6,3.154,3.534,-2.133,-0.456,-0.456,-1.469,1.259,-1.469,1.259,1.318,-6.827,1.318,-4.885,-2.174,-4.005,-6.694,-4.885,-0.677,6.262,-4.005,0.7,9.086,-0.677,5.201,11.326,5.278,9.487,4096.0,0.0,0.0,0,1688127064.4144,2023-06-30 14:11:04,Rest
55,0,-7.611,3.604,9.421,-3.886,-0.599,-1.972,-1.593,-6.229,3.131,3.131,-3.517,-4.377,-3.517,-4.377,-4.319,-10.406,-4.319,-11.54,-11.394,-9.124,-15.396,-11.54,-9.898,-0.916,-9.124,-5.448,1.905,-9.898,-5.563,2.605,-4.461,7.941,4096.0,0.0,0.0,0,1688127064.4222,2023-06-30 14:11:04,Rest
56,0,-12.215,-4.596,2.752,-3.882,-3.16,-7.093,-7.227,-6.735,-0.971,-0.971,-9.148,-11.033,-9.148,-11.033,-13.024,-13.47,-13.024,-17.164,-14.968,-13.213,-21.529,-17.164,-12.962,-9.112,-13.213,-8.005,-7.318,-12.962,-11.705,-2.008,-9.067,1.273,3968.0,0.0,0.0,0,1688127064.43,2023-06-30 14:11:04,Rest
57,0,-6.567,2.581,5.311,-3.878,-4.694,-5.037,-4.658,-4.167,-4.556,-4.556,-8.115,-9.485,-8.115,-9.485,-10.449,-14.481,-10.449,-14.586,-10.855,-15.249,-16.896,-14.586,-7.314,-3.98,-15.249,-4.41,-2.188,-7.314,-3.497,-0.469,-1.886,2.808,4096.0,0.0,0.0,0,1688127064.4379,2023-06-30 14:11:04,Rest
58,0,1.124,13.849,16.064,1.249,4.02,2.653,5.081,0.448,4.67,4.67,2.14,-2.816,2.14,-2.816,0.32,-10.88,0.32,-5.862,-3.159,-4.988,-4.584,-5.862,-0.646,7.295,-4.988,4.303,10.622,-0.646,5.216,7.728,7.85,11.003,4096.0,0.0,0.0,0,1688127064.4457,2023-06-30 14:11:04,Rest
59,0,3.172,12.811,17.585,3.809,4.528,5.724,5.588,0.96,6.715,6.715,3.674,-0.764,3.674,-0.764,0.319,-6.771,0.319,-3.294,-0.595,-1.397,-4.579,-3.294,-1.67,7.287,-1.397,7.373,8.05,-1.67,4.699,10.794,7.842,12.528,4096.0,0.0,0.0,0,1688127064.4535,2023-06-30 14:11:04,Rest
60,0,-3.491,4.601,8.858,-3.367,-4.698,-1.967,-4.664,-4.164,-2.514,-2.514,-3.502,-6.398,-3.502,-6.398,-8.39,-11.375,-8.39,-12.0,-7.254,-13.691,-16.87,-12.0,-9.353,-2.454,-13.691,-0.831,-6.303,-9.353,-1.454,1.05,0.662,6.881,3968.0,0.0,0.0,0,1688127064.4613,2023-06-30 14:11:04,Rest
61,0,-6.561,4.084,8.337,-4.388,-2.132,-5.038,-3.122,-4.672,-3.023,-3.023,-4.01,-9.466,-4.01,-9.466,-7.357,-14.437,-7.357,-14.037,-11.345,-14.189,-16.853,-14.037,-10.881,-3.476,-14.189,-3.905,-7.321,-10.881,-4.014,-2.538,-2.413,5.849,3968.0,0.0,0.0,0,1688127064.4691,2023-06-30 14:11:04,Rest
62,0,-1.432,7.666,11.914,1.252,0.944,-0.423,2.004,-3.13,-1.483,-1.483,-2.47,-8.944,-2.47,-8.944,-4.788,-13.398,-4.788,-9.925,-8.26,-8.54,-9.664,-9.925,-6.259,0.626,-8.54,0.71,-1.166,-6.259,-2.473,3.1,-1.898,8.405,4096.0,0.0,0.0,0,1688127064.4769,2023-06-30 14:11:04,Rest
63,0,-9.115,0.486,1.656,-10.02,-10.84,-7.594,-9.781,-13.886,-11.728,-11.728,-11.689,-17.132,-11.689,-17.132,-15.03,-22.094,-15.03,-19.137,-16.961,-19.29,-19.901,-19.137,-12.913,-7.059,-19.29,-5.438,-8.337,-12.913,-10.155,-5.1,-9.581,-0.313,3968.0,0.0,0.0,0,1688127064.4847,2023-06-30 14:11:04,Rest
64,0,-25.5,-13.347,-11.153,-25.38,-21.075,-21.931,-22.067,-28.729,-24.012,-24.012,-22.948,-27.873,-22.948,-27.873,-26.285,-32.83,-26.285,-29.876,-32.313,-31.566,-35.762,-29.876,-26.732,-20.372,-31.566,-21.314,-20.112,-26.732,-23.977,-20.464,-21.354,-17.219,0.0,0.0,0.0,0,1688127064.4925,2023-06-30 14:11:04,Rest
65,0,-28.548,-19.481,-13.191,-25.866,-22.591,-23.446,-22.557,-32.286,-30.648,-30.648,-24.974,-30.407,-24.974,-30.407,-27.796,-32.285,-27.796,-31.383,-32.793,-32.046,-37.776,-31.383,-29.779,-24.45,-32.046,-28.465,-22.141,-29.779,-24.978,-26.079,-25.944,-22.837,0.0,0.0,0.0,0,1688127064.5004,2023-06-30 14:11:04,Rest
66,0,-31.081,-22.536,-16.764,-28.914,-26.667,-23.423,-28.17,-34.303,-36.252,-36.252,-27.511,-36.012,-27.511,-36.012,-32.379,-35.839,-32.379,-39.036,-33.273,-37.65,-41.836,-39.036,-31.287,-26.987,-37.65,-32.535,-25.705,-31.287,-28.027,-31.688,-28.479,-23.839,0.0,0.0,0.0,0,1688127064.5082,2023-06-30 14:11:04,Rest
67,0,-43.857,-31.735,-30.067,-40.669,-35.349,-35.183,-39.925,-46.564,-41.852,-41.852,-40.803,-45.197,-40.803,-45.197,-44.642,-49.636,-44.642,-52.829,-46.047,-48.371,-54.602,-52.829,-42.014,-36.182,-48.371,-41.212,-37.975,-42.014,-43.88,-39.341,-37.16,-35.598,0.0,0.0,0.0,0,1688127064.516,2023-06-30 14:11:04,Rest
68,0,-51.498,-40.412,-38.746,-44.214,-40.949,-44.881,-45.008,-54.715,-45.396,-45.396,-52.033,-47.201,-52.033,-47.201,-52.282,-56.246,-52.282,-56.875,-52.149,-53.445,-62.745,-56.875,-50.681,-44.343,-53.445,-45.782,-47.671,-50.681,-48.959,-45.449,-46.857,-44.272,0.0,0.0,0.0,0,1688127064.5238,2023-06-30 14:11:04,Rest
69,0,-46.324,-39.859,-35.634,-40.584,-38.859,-40.738,-40.352,-49.025,-42.277,-42.277,-46.858,-46.13,-46.858,-46.13,-49.156,-50.042,-49.156,-52.207,-45.949,-49.806,-60.633,-52.207,-48.069,-43.786,-49.806,-44.711,-46.086,-48.069,-41.226,-50.015,-46.298,-40.641,0.0,0.0,0.0,0,1688127064.5316,2023-06-30 14:11:04,Rest
70,0,-40.13,-32.135,-29.45,-37.469,-31.648,-34.037,-32.627,-40.779,-34.037,-34.037,-36.053,-43.01,-36.053,-43.01,-40.397,-42.82,-40.397,-47.544,-44.366,-45.657,-54.937,-47.544,-41.361,-37.595,-45.657,-41.08,-39.892,-41.361,-40.672,-44.842,-40.104,-35.477,0.0,0.0,0.0,0,1688127064.5394,2023-06-30 14:11:04,Rest
71,0,-38.553,-29.541,-29.421,-36.407,-30.08,-34.516,-32.082,-41.25,-34.003,-34.003,-38.066,-39.893,-38.066,-39.893,-38.82,-45.338,-38.82,-48.522,-46.371,-47.661,-52.832,-48.522,-38.758,-36.532,-47.661,-37.453,-37.803,-38.758,-41.144,-37.112,-41.088,-31.856,0.0,0.0,0.0,0,1688127064.5472,2023-06-30 14:11:04,Rest
72,0,-41.588,-33.098,-31.953,-36.883,-32.611,-34.993,-36.661,-42.234,-39.605,-39.605,-43.151,-41.902,-43.151,-41.902,-45.441,-50.416,-45.441,-48.473,-45.3,-49.663,-54.829,-48.473,-41.793,-40.594,-49.663,-34.342,-39.302,-41.793,-36.492,-38.612,-43.609,-31.312,0.0,0.0,0.0,0,1688127064.555,2023-06-30 14:11:04,Rest
73,0,-35.399,-26.917,-25.774,-32.748,-28.48,-28.811,-32.013,-34.507,-34.442,-34.442,-35.423,-37.762,-35.423,-37.762,-40.785,-41.657,-40.785,-41.765,-40.132,-43.977,-49.651,-41.765,-40.726,-33.894,-43.977,-26.111,-34.652,-40.726,-32.357,-30.889,-37.93,-28.719,0.0,0.0,0.0,0,1688127064.5629,2023-06-30 14:11:04,Rest
74,0,-22.556,-15.619,-15.502,-25.543,-20.767,-21.61,-24.809,-25.763,-25.186,-25.186,-24.117,-25.429,-24.117,-25.429,-27.424,-29.32,-27.424,-34.038,-32.919,-38.298,-38.843,-34.038,-32.489,-20.54,-38.298,-16.351,-26.421,-32.489,-26.177,-15.489,-32.256,-18.956,0.0,0.0,0.0,0,1688127064.5707,2023-06-30 14:11:04,Rest
75,0,-25.095,-16.116,-17.023,-27.054,-20.746,-22.613,-26.833,-27.786,-26.186,-26.186,-26.654,-28.477,-26.654,-28.477,-29.446,-32.876,-29.446,-34.516,-30.837,-40.821,-39.316,-34.516,-29.382,-22.056,-40.821,-17.359,-26.394,-29.382,-22.565,-17.01,-34.786,-16.376,0.0,0.0,0.0,0,1688127064.5785,2023-06-30 14:11:04,Rest
76,0,-33.779,-21.735,-24.178,-34.712,-25.848,-28.225,-30.905,-36.468,-33.844,-33.844,-33.288,-38.695,-33.288,-38.695,-37.101,-40.016,-37.101,-39.093,-34.905,-41.805,-44.912,-39.093,-33.452,-32.793,-41.805,-22.465,-29.442,-33.452,-29.202,-25.702,-35.263,-25.581,0.0,0.0,0.0,0,1688127064.5863,2023-06-30 14:11:04,Rest
77,0,-28.622,-21.714,-22.105,-34.677,-29.409,-30.246,-32.411,-39.505,-38.421,-38.421,-32.23,-35.07,-32.23,-35.07,-36.04,-38.439,-36.04,-39.054,-36.407,-37.665,-44.355,-39.054,-35.467,-30.198,-37.665,-20.393,-28.9,-35.467,-30.71,-22.603,-33.691,-27.092,0.0,0.0,0.0,0,1688127064.5941,2023-06-30 14:11:04,Rest
78,0,-23.982,-23.229,-20.034,-32.081,-27.842,-29.704,-34.94,-36.904,-39.919,-39.919,-33.222,-32.473,-33.222,-32.473,-38.053,-36.351,-38.053,-36.965,-36.37,-37.115,-44.823,-36.965,-36.456,-26.582,-37.115,-20.372,-30.92,-36.456,-26.068,-21.556,-37.243,-23.991,0.0,0.0,0.0,0,1688127064.6019,2023-06-30 14:11:04,Rest
79,0,-29.081,-26.279,-24.112,-35.635,-27.302,-30.186,-34.393,-39.429,-37.318,-37.318,-37.287,-37.564,-37.287,-37.564,-41.601,-35.29,-41.601,-37.441,-36.846,-40.152,-45.291,-37.441,-34.883,-30.141,-40.152,-23.938,-32.939,-34.883,-29.629,-26.657,-38.743,-27.041,0.0,0.0,0.0,0,1688127064.6097,2023-06-30 14:11:04,Rest
80,0,-28.54,-24.716,-22.039,-36.624,-30.861,-29.132,-29.748,-41.951,-32.67,-32.67,-30.59,-32.915,-30.59,-32.915,-34.387,-32.181,-34.387,-33.305,-31.686,-33.451,-38.073,-33.305,-28.188,-26.013,-33.451,-21.353,-27.27,-28.188,-30.623,-24.581,-33.581,-25.477,0.0,0.0,0.0,0,1688127064.6175,2023-06-30 14:11:04,Rest
81,0,-27.999,-25.716,-20.48,-35.563,-33.904,-30.127,-31.767,-41.909,-37.248,-37.248,-26.973,-31.858,-26.973,-31.858,-33.328,-33.174,-33.328,-30.71,-31.655,-29.32,-38.035,-30.71,-29.185,-22.913,-29.32,-22.356,-26.219,-29.185,-27.519,-24.044,-35.597,-23.915,0.0,0.0,0.0,0,1688127064.6254,2023-06-30 14:11:04,Rest
82,0,-40.267,-35.936,-32.755,-42.699,-36.944,-39.831,-43.006,-48.527,-50.018,-50.018,-43.34,-45.658,-43.34,-45.658,-48.152,-42.874,-48.152,-43.487,-45.455,-44.147,-53.878,-43.487,-41.963,-38.772,-44.147,-34.629,-39.512,-41.963,-39.275,-35.291,-45.807,-38.748,0.0,0.0,0.0,0,1688127064.6332,2023-06-30 14:11:04,Rest
83,0,-49.96,-45.634,-42.968,-49.829,-43.567,-47.476,-50.648,-55.651,-53.555,-53.555,-56.104,-52.785,-56.104,-52.785,-57.837,-54.614,-57.837,-55.739,-55.656,-55.886,-65.095,-55.739,-51.143,-51.541,-55.886,-46.377,-49.719,-51.143,-52.555,-44.99,-51.397,-49.98,0.0,0.0,0.0,0,1688127064.641,2023-06-30 14:11:04,Rest
84,0,-47.349,-43.54,-38.314,-44.656,-40.962,-44.867,-46.499,-47.398,-43.767,-43.767,-49.901,-46.072,-49.901,-46.072,-52.144,-53.023,-52.144,-51.585,-50.99,-50.707,-59.907,-51.585,-49.042,-44.317,-50.707,-44.794,-45.571,-49.042,-47.38,-42.383,-48.272,-41.221,0.0,0.0,0.0,0,1688127064.6488,2023-06-30 14:11:04,Rest
85,0,-44.228,-39.398,-34.177,-41.538,-35.286,-42.772,-42.866,-43.765,-42.699,-42.699,-44.215,-44.489,-44.215,-44.489,-48.506,-43.748,-48.506,-47.435,-47.865,-47.07,-55.236,-47.435,-45.407,-40.174,-47.07,-40.651,-40.402,-45.407,-42.722,-38.754,-45.662,-35.544,0.0,0.0,0.0,0,1688127064.6566,2023-06-30 14:11:04,Rest
86,0,-50.843,-46.53,-41.316,-51.742,-45.496,-49.39,-49.996,-57.553,-51.365,-51.365,-51.856,-52.129,-51.856,-52.129,-56.654,-51.389,-56.654,-57.121,-56.014,-53.683,-64.403,-57.121,-50.997,-49.355,-53.683,-49.832,-46.509,-50.997,-52.925,-48.962,-49.715,-46.779,0.0,0.0,0.0,0,1688127064.6644,2023-06-30 14:11:04,Rest
87,0,-62.576,-55.193,-52.033,-58.863,-53.136,-55.488,-58.143,-63.131,-54.388,-54.388,-62.562,-59.762,-62.562,-59.762,-66.331,-64.145,-66.331,-66.798,-64.667,-60.802,-76.121,-66.798,-62.729,-58.015,-60.802,-60.028,-58.246,-62.729,-61.069,-59.159,-56.325,-55.954,0.0,0.0,0.0,0,1688127064.6722,2023-06-30 14:11:04,Rest
88,0,-62.513,-53.601,-53.518,-53.681,-45.91,-54.408,-57.572,-56.408,-53.821,-53.821,-63.012,-60.727,-63.012,-60.727,-65.24,-59.983,-65.24,-66.731,-64.09,-63.815,-74.508,-66.731,-65.74,-58.982,-63.815,-56.894,-62.798,-65.74,-59.983,-57.563,-56.781,-52.824,0.0,0.0,0.0,0,1688127064.68,2023-06-30 14:11:04,Rest
89,0,-52.204,-48.424,-44.755,-50.041,-42.278,-50.767,-51.367,-55.839,-53.255,-53.255,-55.264,-52.981,-55.264,-52.981,-59.54,-54.287,-59.54,-58.467,-57.366,-58.628,-62.651,-58.467,-54.404,-53.8,-58.628,-49.153,-53.514,-54.404,-53.776,-52.382,-52.114,-46.111,0.0,0.0,0.0,0,1688127064.6879,2023-06-30 14:11:04,Rest
90,0,-44.98,-42.741,-39.075,-49.991,-44.285,-45.081,-46.192,-53.734,-48.079,-48.079,-49.062,-47.293,-49.062,-47.293,-54.869,-53.209,-54.869,-51.236,-50.136,-48.323,-53.879,-51.236,-44.616,-45.549,-48.323,-43.468,-42.19,-44.616,-45.525,-48.231,-47.963,-42.479,0.0,0.0,0.0,0,1688127064.6957,2023-06-30 14:11:04,Rest
91,0,-38.275,-32.452,-32.888,-41.232,-37.068,-36.839,-42.048,-44.971,-44.444,-44.444,-42.865,-45.197,-42.865,-45.197,-45.593,-41.885,-45.593,-44.525,-42.402,-40.078,-49.214,-44.525,-38.423,-37.307,-40.078,-37.277,-36.512,-38.423,-38.819,-36.4,-40.743,-36.801,0.0,0.0,0.0,0,1688127064.7035,2023-06-30 14:11:04,Rest
92,0,-25.941,-20.636,-18.51,-29.407,-26.273,-26.556,-32.272,-34.68,-39.789,-39.789,-29.502,-34.905,-29.502,-34.905,-30.691,-29.035,-30.691,-28.599,-29.039,-28.255,-34.82,-28.599,-24.04,-24.974,-28.255,-27.506,-24.18,-24.04,-28.534,-20.482,-26.357,-23.444,0.0,0.0,0.0,0,1688127064.7113,2023-06-30 14:11:04,Rest
93,0,-13.62,-8.832,-5.684,-19.644,-17.025,-16.283,-17.383,-22.862,-27.454,-27.454,-16.665,-19.501,-16.665,-19.501,-18.877,-22.346,-18.877,-12.177,-14.666,-14.907,-15.318,-12.177,-9.159,-11.629,-14.907,-11.597,-8.275,-9.159,-12.112,-8.679,-13.523,-9.076,0.0,0.0,0.0,0,1688127064.7191,2023-06-30 14:11:04,Rest
94,0,-11.557,-3.7,-5.679,-14.501,-14.959,-13.706,-13.779,-19.766,-21.791,-21.791,-14.599,-16.92,-14.599,-16.92,-17.321,-19.25,-17.321,-13.701,-14.139,-14.379,-13.766,-13.701,-10.687,-8.543,-14.379,-5.95,-10.316,-10.687,-8.514,-5.084,-12.997,-4.969,0.0,0.0,0.0,0,1688127064.7269,2023-06-30 14:11:04,Rest
95,0,-21.279,-12.918,-10.796,-20.122,-23.141,-21.377,-22.987,-28.967,-29.966,-29.966,-20.732,-25.1,-20.732,-25.1,-24.988,-26.403,-24.988,-23.422,-23.346,-22.562,-27.072,-23.422,-20.41,-15.707,-22.562,-19.776,-22.088,-20.41,-20.288,-10.714,-22.206,-10.599,0.0,0.0,0.0,0,1688127064.7347,2023-06-30 14:11:04,Rest
96,0,-25.869,-17.004,-11.297,-23.688,-24.655,-22.892,-21.939,-25.865,-28.399,-28.399,-24.297,-25.075,-24.297,-25.075,-27.013,-29.963,-27.013,-23.398,-23.835,-22.027,-27.045,-23.398,-19.365,-19.79,-22.027,-23.855,-18.48,-19.365,-22.83,-12.24,-23.721,-14.175,3968.0,0.0,0.0,0,1688127064.7425,2023-06-30 14:11:04,Rest
97,0,-12.523,-5.204,-3.602,-12.394,-12.847,-11.598,-11.671,-7.908,-14.539,-14.539,-16.588,-12.754,-16.588,-12.754,-16.739,-17.125,-16.739,-14.153,-13.053,-12.271,-12.673,-14.153,-9.1,-13.622,-12.271,-12.048,-6.166,-9.1,-10.511,-0.957,-10.377,-6.476,4096.0,0.0,0.0,0,1688127064.7504,2023-06-30 14:11:04,Rest
98,0,-2.777,2.486,3.574,-4.185,-5.149,-4.415,-7.049,-0.728,-5.303,-5.303,-5.301,-6.082,-5.301,-6.082,-9.038,-8.399,-9.038,-8.504,-5.867,-5.087,-7.025,-8.504,-2.943,-0.801,-5.087,-7.938,-1.549,-2.943,-2.816,4.167,-1.657,3.264,4096.0,0.0,0.0,0,1688127064.7582,2023-06-30 14:11:04,Rest
99,0,-5.335,0.947,3.571,-7.766,-5.144,-5.435,-4.992,-2.776,-0.174,-0.174,-3.247,-6.076,-3.247,-6.076,-8.004,-9.927,-8.004,-9.007,-6.886,-6.106,-7.53,-9.007,-4.477,3.81,-6.106,-6.905,-2.572,-4.477,-2.813,1.089,-5.242,2.749,4096.0,0.0,0.0,0,1688127064.766,2023-06-30 14:11:04,Rest
100,0,-1.744,3.507,6.129,-5.197,-2.578,-4.917,-1.914,1.325,4.437,4.437,-4.268,0.078,-4.268,0.078,-2.873,-5.306,-2.873,-6.437,-5.342,-6.612,-2.912,-6.437,-2.935,0.22,-6.612,0.787,-1.545,-2.935,-0.249,6.723,-1.65,3.258,4096.0,0.0,0.0,0,1688127064.7738,2023-06-30 14:11:04,Rest
101,0,1.844,5.553,10.733,0.443,-0.013,-4.4,-2.936,4.91,2.383,2.383,-1.702,3.152,-1.702,3.152,-2.358,-3.252,-2.358,-1.82,0.299,-1.483,0.677,-1.82,0.654,2.27,-1.483,-0.239,3.067,0.654,0.776,11.839,3.987,8.378,4096.0,0.0,0.0,0,1688127064.7816,2023-06-30 14:11:04,Rest
102,0,-4.305,0.424,5.6,-4.68,-3.6,-7.469,-6.007,-2.267,-4.792,-4.792,-3.75,-5.56,-3.75,-5.56,-12.09,-10.421,-12.09,-5.404,-3.288,-2.506,-4.447,-5.404,-2.933,2.267,-2.506,-4.849,3.576,-2.933,-2.299,4.655,-1.653,3.759,4096.0,0.0,0.0,0,1688127064.7894,2023-06-30 14:11:04,Rest
103,0,-2.764,1.448,3.545,-7.749,-7.182,-5.925,-4.464,-6.876,-7.348,-7.348,-6.307,-9.141,-6.307,-9.141,-10.028,-12.972,-10.028,-5.399,-7.895,-2.503,-5.467,-5.399,-2.418,-1.321,-2.503,2.84,1.011,-2.418,0.265,4.138,-1.651,-0.343,4096.0,0.0,0.0,0,1688127064.7972,2023-06-30 14:11:04,Rest
104,0,13.12,14.767,17.886,5.066,2.047,5.864,6.811,4.914,2.905,2.905,5.482,6.237,5.482,6.237,7.913,-3.225,7.913,11.513,8.506,13.381,9.908,11.513,14.491,13.025,13.381,16.157,11.769,14.491,15.122,22.065,12.183,15.539,4096.0,0.0,0.0,0,1688127064.805,2023-06-30 14:11:04,Rest
105,0,30.013,30.634,34.262,21.455,20.488,20.203,24.735,24.889,21.858,21.858,26.993,24.674,26.993,24.674,24.811,19.832,24.811,30.457,31.039,30.786,30.39,30.457,33.944,36.066,30.786,27.924,31.737,33.944,32.013,36.387,25.491,36.528,4096.0,0.0,0.0,0,1688127064.8129,2023-06-30 14:11:04,Rest
106,0,38.692,39.312,42.424,28.093,28.664,27.867,33.419,34.598,35.156,35.156,37.725,34.383,37.725,34.383,34.008,37.23,34.008,37.086,37.156,33.317,40.606,37.086,39.033,41.153,33.317,34.556,37.853,39.033,38.641,37.888,33.662,43.151,4096.0,0.0,0.0,0,1688127064.8207,2023-06-30 14:11:04,Rest
107,0,35.58,37.224,41.357,26.016,24.025,25.79,27.238,31.49,33.071,33.071,33.589,32.812,33.589,32.812,32.437,29.509,32.437,34.488,33.533,31.234,37.491,34.488,34.896,36.501,31.234,31.96,34.741,34.896,36.041,38.362,34.141,39.01,4096.0,0.0,0.0,0,1688127064.8285,2023-06-30 14:11:04,Rest
108,0,27.347,28.99,31.07,19.842,19.902,19.104,19.526,24.286,21.767,21.767,25.87,24.582,25.87,24.582,23.183,15.647,23.183,28.305,27.351,28.129,27.208,28.305,30.25,32.366,28.129,24.756,31.12,30.25,30.881,32.689,24.885,31.798,4096.0,0.0,0.0,0,1688127064.8363,2023-06-30 14:11:04,Rest
109,0,25.271,25.375,28.477,16.749,18.858,17.548,18.995,21.188,18.672,18.672,23.795,23.021,23.795,23.021,22.135,19.217,22.135,24.691,23.226,21.953,23.594,24.691,25.609,27.723,21.953,21.657,24.429,25.609,26.24,22.41,21.274,29.205,4096.0,0.0,0.0,0,1688127064.8441,2023-06-30 14:11:04,Rest
110,0,32.93,32.009,37.67,23.392,20.376,22.142,25.636,28.339,32.998,32.998,29.919,33.756,29.919,33.756,31.334,28.42,31.334,28.765,30.887,26.542,32.792,28.765,28.657,33.843,26.542,26.246,23.892,28.657,30.824,28.023,28.425,37.373,4096.0,0.0,0.0,0,1688127064.8519,2023-06-30 14:11:04,Rest
111,0,39.045,40.174,42.756,31.566,28.04,27.243,32.782,38.044,42.186,42.186,37.062,37.821,37.062,37.821,33.352,31.465,33.352,35.396,37.004,36.762,40.444,35.396,37.85,40.981,36.762,29.806,31.553,37.85,39.503,37.216,33.52,47.069,4096.0,0.0,0.0,0,1688127064.8597,2023-06-30 14:11:04,Rest
112,0,35.42,41.159,40.664,27.948,32.11,29.777,29.676,37.494,33.435,33.435,34.463,32.148,34.463,32.148,29.733,30.409,29.733,34.336,31.844,34.676,37.842,34.336,37.812,37.354,34.676,27.727,28.96,37.812,39.463,33.593,33.998,45.485,4096.0,0.0,0.0,0,1688127064.8675,2023-06-30 14:11:04,Rest
113,0,34.872,40.093,41.648,25.358,29.004,29.747,27.084,35.407,29.303,29.303,29.306,33.14,29.306,33.14,31.24,27.817,31.24,30.203,30.787,31.567,34.731,30.203,34.188,38.853,31.567,27.187,22.783,34.188,35.838,35.609,33.452,42.878,4096.0,0.0,0.0,0,1688127064.8754,2023-06-30 14:11:04,Rest
114,0,42.522,42.614,44.68,30.968,28.463,30.23,33.205,37.421,35.421,35.421,35.424,37.206,35.424,37.206,34.795,26.252,34.795,33.247,34.855,37.683,36.233,33.247,38.765,44.962,37.683,32.283,31.47,38.765,41.949,43.77,35.468,44.884,4096.0,0.0,0.0,0,1688127064.8832,2023-06-30 14:11:04,Rest
115,0,42.991,45.645,46.172,30.425,29.972,29.175,35.733,36.871,32.312,32.312,41.536,33.07,41.536,33.07,37.321,24.177,37.321,36.287,32.259,37.646,38.758,36.287,42.312,42.868,37.646,36.862,37.586,42.312,44.981,41.677,39.531,46.889,4096.0,0.0,0.0,0,1688127064.891,2023-06-30 14:11:04,Rest
116,0,39.875,48.674,47.663,28.345,29.942,29.658,34.161,36.835,30.743,30.743,39.445,32.012,39.445,32.012,40.87,23.64,40.87,36.763,33.251,34.534,43.33,36.763,41.758,44.362,34.534,40.923,31.401,41.758,43.399,43.684,40.516,47.867,4096.0,0.0,0.0,0,1688127064.8988,2023-06-30 14:11:04,Rest
117,0,44.446,51.187,47.615,34.465,30.936,34.239,36.176,40.896,37.884,37.884,39.406,36.079,39.406,36.079,42.366,29.252,42.366,39.288,38.341,39.623,46.361,39.288,44.79,47.904,39.623,43.956,30.345,44.79,46.43,49.788,39.963,50.38,4096.0,0.0,0.0,0,1688127064.9066,2023-06-30 14:11:04,Rest
118,0,41.327,45.5,41.932,29.307,27.319,31.131,31.017,33.171,29.65,29.65,36.805,30.919,36.805,30.919,34.127,27.686,34.127,34.126,31.13,34.46,37.093,34.126,37.06,39.659,34.46,36.74,28.777,37.06,41.773,38.468,37.362,43.67,4096.0,0.0,0.0,0,1688127064.9144,2023-06-30 14:11:04,Rest
119,0,27.966,32.647,31.644,13.396,17.046,17.268,19.715,18.793,15.788,15.788,24.985,22.179,24.985,22.179,23.847,18.437,23.847,20.772,19.316,21.105,22.711,20.772,22.679,29.373,21.105,24.92,16.453,22.679,27.899,25.109,25.541,30.306,4096.0,0.0,0.0,0,1688127064.9222,2023-06-30 14:11:04,Rest
120,0,28.45,32.102,31.1,16.457,17.029,17.763,22.257,21.336,22.432,22.432,24.448,25.743,24.448,25.743,26.384,23.541,26.384,25.362,23.395,24.158,25.25,25.362,27.267,31.905,24.158,25.92,14.9,27.267,27.871,30.207,20.905,30.788,4096.0,0.0,0.0,0,1688127064.93,2023-06-30 14:11:04,Rest
121,0,41.742,44.877,43.877,33.347,30.844,34.139,34.017,37.196,34.705,34.705,38.256,38.013,38.256,38.013,38.141,39.912,38.141,40.193,37.716,37.966,42.131,40.193,42.609,42.632,37.966,38.189,29.23,42.609,40.138,37.862,35.229,46.639,4096.0,0.0,0.0,0,1688127064.9379,2023-06-30 14:11:04,Rest
122,0,46.823,49.956,51.518,37.412,40.035,38.715,40.131,42.794,37.232,37.232,44.365,43.61,44.365,43.61,42.714,42.946,42.714,43.227,45.363,41.515,47.724,43.227,44.615,49.762,41.515,46.86,35.348,44.615,46.246,41.41,45.952,55.301,4096.0,0.0,0.0,0,1688127064.9457,2023-06-30 14:11:04,Rest
123,0,43.702,44.783,47.88,31.739,34.359,32.017,38.554,37.116,35.658,35.658,39.71,40.493,39.71,40.493,38.573,34.193,38.573,39.085,39.682,39.424,39.992,39.085,42.521,47.663,39.424,44.764,31.727,42.521,44.15,42.393,39.758,47.562,4096.0,0.0,0.0,0,1688127064.9535,2023-06-30 14:11:04,Rest
124,0,41.61,44.225,46.295,28.633,27.665,31.472,33.392,35.542,33.573,33.573,36.596,36.866,36.596,36.866,36.997,30.573,36.997,34.435,33.495,36.311,36.365,34.435,41.967,43.517,36.311,40.109,31.183,41.967,41.032,39.789,35.108,41.366,4096.0,0.0,0.0,0,1688127064.9613,2023-06-30 14:11:04,Rest
125,0,42.593,47.255,50.347,33.728,33.785,33.49,35.921,43.703,38.15,38.15,41.171,41.44,41.171,41.44,40.034,36.69,40.034,33.889,38.072,35.762,40.94,33.889,41.925,47.059,35.762,43.655,32.688,41.925,42.016,42.823,40.196,50.034,4096.0,0.0,0.0,0,1688127064.9691,2023-06-30 14:11:04,Rest
