COUNTER,INTERPOLATED,Cz,Fz,Fp1,F7,F3,FC1,C3,FC5,FT9,T7,CP5,CP1,P3,P7,PO9,O1,Pz,Oz,O2,PO10,P8,P4,CP2,CP6,T8,FT10,FC6,C4,FC2,F4,F8,Fp2,HighBitFlex,SaturationFlag,RAW_CQ,MARKER_HARDWARE,MARKERS,Human Readable Time,New Label
59,0,1.772,7.292,1.161,3.012,0.077,0.423,3.963,0.362,-0.611,-0.611,1.774,4.531,1.774,4.531,-1.491,7.539,-1.491,0.524,3.11,3.403,1.776,0.524,4.291,1.011,3.403,1.689,-2.458,4.291,4.929,-19.907,8.597,3.346,4096.0,0.0,0.0,0,1688145441.8623,2023-06-30 19:17:21,Rest
60,0,1.258,5.236,2.696,7.108,2.639,-2.651,0.373,-0.15,2.975,2.975,2.284,5.551,2.284,5.551,-2.002,5.482,-2.002,0.011,2.082,1.863,2.798,0.011,2.75,0.498,1.863,4.248,-1.431,2.75,3.387,-18.35,7.563,1.806,4096.0,0.0,0.0,0,1688145441.8701,2023-06-30 19:17:21,Rest
61,0,-1.817,0.108,-0.892,0.953,1.099,-5.722,-3.214,-0.15,-1.638,-1.638,-2.841,-0.09,-2.841,-0.09,-3.536,0.353,-3.536,-4.088,-1.506,-2.238,-3.864,-4.088,-0.327,-4.625,-2.238,-0.879,-6.553,-0.327,-2.251,-21.918,-1.153,-3.319,4096.0,0.0,0.0,0,1688145441.8779,2023-06-30 19:17:21,Rest
62,0,-8.987,-6.553,-10.113,-8.27,-7.611,-11.352,-10.383,-9.372,-7.272,-7.272,-7.961,-6.237,-7.961,-6.237,-11.218,-8.868,-11.218,-10.231,-9.701,-8.896,-14.107,-10.231,-11.085,-12.305,-8.896,-10.1,-18.329,-11.085,-9.421,-33.167,-9.349,-9.463,4096.0,0.0,0.0,0,1688145441.8857,2023-06-30 19:17:21,Rest
63,0,-13.589,-13.718,-15.738,-10.823,-12.214,-16.976,-14.983,-16.534,-6.24,-6.24,-12.052,-6.743,-12.052,-6.743,-15.305,-13.47,-15.305,-17.393,-16.864,-18.108,-19.216,-17.393,-18.246,-16.904,-18.108,-10.602,-21.385,-18.246,-13.51,-35.695,-13.438,-16.114,3968.0,0.0,0.0,0,1688145441.8935,2023-06-30 19:17:21,Rest
64,0,-10.502,-12.168,-12.136,-9.787,-11.178,-15.422,-12.919,-11.395,-10.333,-10.333,-14.601,-9.811,-14.601,-9.811,-12.728,-13.457,-12.728,-19.937,-17.872,-18.09,-17.659,-19.937,-12.592,-14.838,-18.09,-9.567,-16.24,-12.592,-12.985,-31.561,-11.376,-16.098,0.0,0.0,0.0,0,1688145441.9013,2023-06-30 19:17:21,Rest
65,0,-6.905,-6.008,-10.587,-6.192,-8.093,-13.357,-10.345,-9.334,-12.371,-12.371,-14.074,-12.362,-14.074,-12.362,-14.252,-11.906,-14.252,-15.819,-16.317,-9.363,-15.593,-15.819,-8.481,-13.798,-9.363,-10.069,-15.712,-8.481,-11.435,-34.603,-6.753,-11.983,0.0,0.0,0.0,0,1688145441.9091,2023-06-30 19:17:21,Rest
66,0,-10.997,-10.1,-15.188,-6.698,-9.109,-14.881,-11.359,-13.423,-7.236,-7.236,-13.036,-8.764,-13.036,-8.764,-16.799,-7.284,-16.799,-16.828,-15.788,-13.452,-18.139,-16.828,-14.108,-16.858,-13.452,-7.498,-19.795,-14.108,-11.423,-33.544,-8.284,-15.045,0.0,0.0,0.0,0,1688145441.9169,2023-06-30 19:17:21,Rest
67,0,-10.473,-11.115,-13.635,-8.74,-9.1,-11.792,-11.348,-11.361,-5.692,-5.692,-10.973,-4.144,-10.973,-4.144,-11.147,-3.69,-11.147,-16.811,-13.211,-17.537,-17.096,-16.811,-13.582,-13.255,-17.537,-5.953,-15.164,-13.582,-8.338,-23.777,-9.3,-13.493,0.0,0.0,0.0,0,1688145441.9248,2023-06-30 19:17:21,Rest
68,0,-0.729,1.192,-3.376,-0.022,-1.919,-5.633,-5.701,-3.665,-3.637,-3.637,-3.79,0.983,-3.79,0.983,-2.939,-0.101,-2.939,-7.573,-6.538,-5.736,-6.833,-7.573,-2.297,-2.484,-5.736,-2.874,-4.39,-2.297,-0.133,-18.118,-1.094,0.865,0.0,0.0,0.0,0,1688145441.9326,2023-06-30 19:17:21,Rest
69,0,-0.728,3.752,-2.348,4.076,-1.404,-5.627,-3.646,-1.612,-0.559,-0.559,-3.274,1.494,-3.274,1.494,-4.473,-0.1,-4.473,-7.053,-4.994,-3.681,-4.264,-7.053,-0.758,-4.018,-3.681,0.203,-6.435,-0.758,-1.157,-21.173,-0.068,0.864,0.0,0.0,0.0,0,1688145441.9404,2023-06-30 19:17:21,Rest
70,0,-10.974,-6.498,-11.055,-8.223,-10.112,-12.794,-11.839,-6.733,-10.293,-10.293,-13.517,-8.241,-13.517,-8.241,-13.178,-6.76,-13.178,-17.804,-11.649,-15.973,-14.506,-17.804,-11.004,-14.26,-15.973,-7.994,-17.187,-11.004,-9.865,-26.788,-8.265,-14.506,0.0,0.0,0.0,0,1688145441.9482,2023-06-30 19:17:21,Rest
71,0,-12.5,-10.59,-14.63,-13.85,-12.151,-16.367,-18.487,-15.948,-19.504,-19.504,-17.089,-11.819,-17.089,-11.819,-18.288,-9.827,-18.288,-17.786,-16.248,-15.957,-19.615,-17.786,-16.116,-15.783,-15.957,-15.158,-20.244,-16.116,-13.442,-29.835,-10.306,-18.078,0.0,0.0,0.0,0,1688145441.956,2023-06-30 19:17:21,Rest
72,0,-15.561,-15.19,-18.201,-12.812,-15.213,-18.4,-21.543,-23.617,-20.509,-20.509,-18.097,-11.807,-18.097,-11.807,-20.831,-9.305,-20.831,-17.769,-19.306,-16.453,-24.206,-17.769,-18.661,-19.866,-16.453,-17.705,-24.322,-18.661,-19.576,-31.854,-15.931,-19.084,0.0,0.0,0.0,0,1688145441.9638,2023-06-30 19:17:21,Rest
73,0,-31.427,-30.032,-33.552,-26.631,-30.055,-30.164,-30.743,-32.302,-30.735,-30.735,-32.423,-26.652,-32.423,-26.652,-31.569,-22.616,-31.569,-37.219,-33.119,-33.855,-40.063,-37.219,-32.987,-35.215,-33.855,-32.544,-40.179,-32.987,-32.876,-42.068,-30.772,-33.922,0.0,0.0,0.0,0,1688145441.9716,2023-06-30 19:17:21,Rest
74,0,-43.179,-39.223,-45.302,-39.925,-36.685,-41.405,-39.934,-43.029,-39.413,-39.413,-45.711,-40.97,-45.711,-40.97,-44.345,-37.45,-44.345,-49.477,-46.918,-46.117,-51.294,-49.477,-45.249,-44.401,-46.117,-47.881,-50.898,-45.249,-43.602,-55.346,-41.5,-46.184,0.0,0.0,0.0,0,1688145441.9794,2023-06-30 19:17:21,Rest
75,0,-43.648,-42.77,-46.281,-39.373,-33.574,-40.851,-42.967,-45.547,-36.3,-36.3,-45.665,-38.368,-45.665,-38.368,-47.887,-33.827,-47.887,-44.816,-46.359,-45.559,-52.779,-44.816,-44.692,-48.455,-45.559,-46.808,-51.871,-44.692,-48.169,-54.266,-48.118,-49.724,0.0,0.0,0.0,0,1688145441.9873,2023-06-30 19:17:21,Rest
76,0,-42.58,-46.826,-48.284,-40.87,-39.176,-41.323,-44.974,-44.477,-38.825,-38.825,-46.132,-37.305,-46.132,-37.305,-47.326,-28.67,-47.326,-46.821,-44.776,-47.562,-54.776,-46.821,-47.209,-51.993,-47.562,-46.249,-55.406,-47.209,-47.609,-49.089,-53.705,-53.772,0.0,0.0,0.0,0,1688145441.9951,2023-06-30 19:17:21,Rest
77,0,-38.951,-42.681,-46.186,-39.292,-38.624,-42.818,-41.855,-44.432,-39.299,-39.299,-44.037,-37.267,-44.037,-37.267,-44.718,-30.178,-44.718,-49.848,-46.268,-46.49,-50.623,-49.848,-49.211,-45.281,-46.49,-46.715,-51.252,-49.211,-41.926,-48.528,-46.992,-48.595,0.0,0.0,0.0,0,1688145442.0029,2023-06-30 19:17:22,Rest
78,0,-29.178,-29.83,-31.283,-23.884,-23.217,-33.042,-31.055,-31.58,-23.378,-23.378,-30.673,-22.885,-30.673,-22.885,-31.353,-16.828,-31.353,-35.453,-34.438,-33.636,-37.252,-35.453,-33.28,-31.403,-33.636,-32.836,-36.856,-33.28,-32.15,-37.208,-33.112,-34.202,0.0,0.0,0.0,0,1688145442.0107,2023-06-30 19:17:22,Rest
79,0,-18.39,-18.53,-19.469,-13.101,-13.972,-21.226,-22.827,-13.618,-11.571,-11.571,-18.859,-11.08,-18.859,-11.08,-18.514,2.657,-18.514,-21.586,-17.498,-21.307,-25.944,-21.586,-17.365,-21.126,-21.307,-18.458,-26.573,-17.365,-21.359,-18.728,-24.882,-22.385,0.0,0.0,0.0,0,1688145442.0185,2023-06-30 19:17:22,Rest
80,0,-20.421,-18.511,-23.036,-18.724,-18.056,-22.741,-22.804,-20.264,-18.732,-18.732,-21.914,-16.704,-21.914,-16.704,-23.618,-5.543,-23.618,-26.687,-20.554,-23.335,-26.943,-26.687,-23.496,-23.666,-23.335,-23.051,-29.62,-23.496,-19.801,-19.734,-25.37,-22.875,0.0,0.0,0.0,0,1688145442.0263,2023-06-30 19:17:22,Rest
81,0,-36.795,-32.325,-37.87,-32.025,-28.797,-34.502,-34.564,-40.224,-32.546,-32.546,-37.773,-30.519,-37.773,-30.519,-38.452,-31.665,-38.452,-43.054,-40.001,-36.631,-43.31,-43.054,-37.304,-41.061,-36.631,-35.835,-41.374,-37.304,-37.2,-37.133,-37.64,-39.246,0.0,0.0,0.0,0,1688145442.0341,2023-06-30 19:17:22,Rest
82,0,-40.344,-39.977,-42.955,-38.141,-35.428,-40.103,-43.751,-41.721,-38.149,-38.149,-44.396,-36.124,-44.396,-36.124,-40.462,-33.683,-40.462,-46.085,-44.572,-40.181,-50.439,-46.085,-39.829,-46.143,-40.181,-35.8,-44.406,-39.829,-43.822,-38.632,-42.213,-46.891,0.0,0.0,0.0,0,1688145442.0419,2023-06-30 19:17:22,Rest
83,0,-19.299,-20.47,-23.956,-21.709,-22.585,-25.206,-25.777,-26.31,-25.303,-25.303,-24.884,-21.744,-24.884,-21.744,-23.004,-11.107,-23.004,-25.547,-23.523,-22.722,-26.31,-25.547,-22.883,-22.531,-22.722,-17.321,-24.894,-22.883,-21.237,-15.028,-21.166,-22.254,0.0,0.0,0.0,0,1688145442.0498,2023-06-30 19:17:22,Rest
84,0,-2.374,1.068,-2.416,-1.195,-6.681,-5.713,-2.697,-13.476,-6.834,-6.834,-3.854,-3.791,-3.854,-3.791,-6.587,4.785,-6.587,-3.492,-4.544,-3.232,-2.205,-3.492,-2.88,-4.577,-3.232,-1.422,-4.377,-2.88,-2.26,2.406,-2.702,-1.227,0.0,0.0,0.0,0,1688145442.0576,2023-06-30 19:17:22,Rest
85,0,-6.47,-2.007,-6.512,-7.341,-11.797,-7.244,-8.842,-11.925,-8.364,-8.364,-7.949,-6.349,-7.949,-6.349,-8.117,2.219,-8.117,-2.464,-6.589,-2.716,-6.813,-2.464,-3.389,-9.696,-2.716,-5.007,-6.934,-3.389,-5.844,-3.744,-7.822,-11.472,0.0,0.0,0.0,0,1688145442.0654,2023-06-30 19:17:22,Rest
86,0,-11.074,-10.202,-18.288,-17.068,-15.884,-16.97,-19.079,-19.086,-19.114,-19.114,-15.625,-13.515,-15.625,-13.515,-14.257,-3.931,-14.257,-9.634,-11.705,-12.447,-16.028,-9.634,-13.12,-13.272,-12.447,-12.686,-17.686,-13.12,-11.986,-11.425,-15.499,-20.169,0.0,0.0,0.0,0,1688145442.0732,2023-06-30 19:17:22,Rest
87,0,-9.526,-7.63,-17.758,-11.415,-8.183,-13.88,-11.376,-20.091,-13.972,-13.972,-9.462,-8.89,-9.462,-8.89,-11.168,-3.927,-11.168,-9.624,-8.62,-13.972,-13.963,-9.624,-12.594,-9.673,-13.972,-10.624,-21.766,-12.594,-11.462,-10.389,-15.996,-12.465,0.0,0.0,0.0,0,1688145442.081,2023-06-30 19:17:22,Rest
88,0,-9.516,-7.623,-12.104,-8.842,-10.224,-10.792,-11.364,-12.387,-5.761,-5.761,-7.403,-7.857,-7.403,-7.857,-8.083,-2.898,-8.083,-8.078,-5.537,-10.884,-11.9,-8.078,-9.508,-9.663,-10.884,-8.564,-17.646,-9.508,-9.401,-10.891,-16.492,-10.915,0.0,0.0,0.0,0,1688145442.0888,2023-06-30 19:17:22,Rest
89,0,-6.945,-6.078,-7.482,-9.346,-13.288,-11.293,-14.427,-7.251,-5.243,-5.243,-8.933,-8.874,-8.933,-8.874,-9.612,-0.334,-9.612,-6.533,-4.507,-10.361,-9.326,-6.533,-8.474,-7.604,-10.361,-8.556,-9.944,-8.474,-7.343,-11.905,-11.865,-9.367,0.0,0.0,0.0,0,1688145442.0966,2023-06-30 19:17:22,Rest
90,0,-3.352,0.076,-5.937,-2.164,-0.467,-5.134,-6.215,-4.682,-0.627,-0.627,-4.313,-1.18,-4.313,-1.18,-7.553,5.814,-7.553,-3.452,-3.99,-6.252,-5.219,-3.452,-3.854,-4.523,-6.252,-5.473,-5.835,-3.854,-6.311,-6.257,-4.681,-4.747,0.0,0.0,0.0,0,1688145442.1044,2023-06-30 19:17:22,Rest
91,0,-6.935,-2.486,-9.005,-3.186,2.095,-4.105,-6.209,-6.215,-0.627,-0.627,-5.333,-1.179,-5.333,-1.179,-9.083,1.197,-9.083,-9.084,-9.622,-4.709,-8.799,-9.084,-5.9,-8.105,-4.709,-8.03,-6.854,-5.9,-6.817,-2.153,-3.139,-9.353,0.0,0.0,0.0,0,1688145442.1123,2023-06-30 19:17:22,Rest
92,0,-12.051,-9.656,-8.996,-9.331,-11.227,-12.297,-13.887,-12.868,-10.872,-10.872,-13.525,-10.399,-13.525,-10.399,-15.221,-14.685,-15.221,-17.784,-15.76,-10.34,-13.401,-17.784,-12.554,-11.17,-10.34,-12.12,-5.823,-12.554,-10.396,-3.688,-4.161,-12.418,0.0,0.0,0.0,0,1688145442.1201,2023-06-30 19:17:22,Rest
93,0,-9.478,-7.597,-6.938,-7.785,-11.728,-12.285,-12.337,-11.831,-10.861,-10.861,-11.462,-9.877,-11.462,-9.877,-13.157,-16.208,-13.157,-15.717,-12.67,-10.842,-10.314,-15.717,-9.467,-10.647,-10.842,-10.059,-9.915,-9.467,-12.435,-3.684,-7.743,-8.307,0.0,0.0,0.0,0,1688145442.1279,2023-06-30 19:17:22,Rest
94,0,-8.956,-4.003,-11.542,-6.752,-5.056,-8.687,-10.275,-6.696,-3.678,-3.678,-8.377,-5.768,-8.377,-5.768,-12.119,-8.507,-12.119,-12.628,-12.145,-8.781,-9.792,-12.628,-7.409,-10.636,-8.781,-10.561,-15.541,-7.409,-8.324,-4.192,-10.809,-9.323,0.0,0.0,0.0,0,1688145442.1357,2023-06-30 19:17:22,Rest
95,0,-12.533,-6.048,-10.506,-7.258,-7.101,-9.703,-11.802,-10.788,-6.236,-6.236,-12.467,-7.3,-12.467,-7.3,-16.206,-11.06,-16.206,-16.201,-16.744,-10.822,-12.856,-16.201,-9.963,-9.601,-10.822,-13.112,-10.915,-9.963,-6.266,-5.725,-6.187,-8.801,0.0,0.0,0.0,0,1688145442.1435,2023-06-30 19:17:22,Rest
96,0,-7.397,-2.968,-2.298,-1.103,-5.044,-6.107,-5.13,-9.24,-6.23,-6.23,-9.381,-2.681,-9.381,-2.681,-8.505,-7.975,-8.505,-11.062,-10.067,-4.151,-6.183,-11.062,-3.293,-2.419,-4.151,-4.902,-1.17,-3.293,-5.748,-2.646,2.016,-0.596,4096.0,0.0,0.0,0,1688145442.1513,2023-06-30 19:17:22,Rest
97,0,2.856,7.281,2.315,5.046,2.133,1.584,3.072,3.577,1.461,1.461,1.899,5.518,1.899,5.518,4.311,5.353,4.311,3.294,4.8,6.611,5.607,3.294,6.957,4.756,6.611,4.837,3.442,6.957,2.967,5.554,7.137,4.528,4096.0,0.0,0.0,0,1688145442.1591,2023-06-30 19:17:22,Rest
98,0,3.878,9.835,2.825,2.479,-0.431,1.07,1.532,2.549,0.947,0.947,3.434,4.488,3.434,4.488,3.283,6.372,3.283,5.852,5.308,3.531,5.601,5.852,5.925,5.776,3.531,4.832,3.439,5.925,7.063,4.524,7.13,1.45,4096.0,0.0,0.0,0,1688145442.1669,2023-06-30 19:17:22,Rest
99,0,-1.761,4.19,0.773,-3.159,-5.553,-3.03,-4.617,-8.725,-5.714,-5.714,-1.18,-0.127,-1.18,-0.127,-1.332,1.243,-1.332,1.748,-1.87,-2.62,0.472,1.748,2.333,1.159,-2.62,3.29,0.874,2.333,0.396,-4.19,-0.049,-1.626,4096.0,0.0,0.0,0,1688145442.1748,2023-06-30 19:17:22,Rest
100,0,-0.735,5.21,-0.252,-1.619,-0.425,-0.465,-4.613,-4.617,-3.146,-3.146,0.358,-0.127,0.358,-0.127,0.719,5.852,0.719,5.844,4.28,1.481,4.058,5.844,4.892,-0.379,1.481,4.824,2.41,4.892,2.445,-2.649,-0.049,-0.087,4096.0,0.0,0.0,0,1688145442.1826,2023-06-30 19:17:22,Rest
101,0,4.389,10.84,2.822,2.994,3.674,3.634,2.052,3.584,3.004,3.004,3.432,2.947,3.432,2.947,1.231,8.408,1.231,6.863,8.374,4.553,8.665,6.863,6.936,2.183,4.553,7.381,4.969,6.936,8.59,2.989,7.123,5.036,4096.0,0.0,0.0,0,1688145442.1904,2023-06-30 19:17:22,Rest
102,0,2.335,7.756,2.819,2.479,0.085,1.581,4.099,1.019,1.977,1.977,2.404,6.53,2.404,6.53,1.742,7.375,1.742,2.246,1.705,-1.087,4.045,2.246,2.831,5.254,-1.087,5.836,0.865,2.831,4.483,-0.088,3.017,5.031,4096.0,0.0,0.0,0,1688145442.1982,2023-06-30 19:17:22,Rest
103,0,2.333,6.211,2.304,2.988,1.109,0.043,1.534,2.043,1.975,1.975,5.475,10.11,5.475,10.11,5.326,12.491,5.326,4.805,3.753,-1.086,4.041,4.805,3.341,6.786,-1.086,5.318,1.377,3.341,4.991,0.937,-0.06,5.026,4096.0,0.0,0.0,0,1688145442.206,2023-06-30 19:17:22,Rest
104,0,12.577,17.476,11.011,11.182,10.33,5.678,8.704,11.774,10.682,10.682,11.617,15.735,11.617,15.735,9.419,16.577,9.419,11.972,13.483,11.723,13.259,11.972,14.096,9.341,11.723,12.485,10.597,14.096,14.719,9.133,15.31,12.705,4096.0,0.0,0.0,0,1688145442.2138,2023-06-30 19:17:22,Rest
105,0,14.613,20.532,13.561,13.22,12.368,10.283,13.819,14.324,16.307,16.307,11.093,18.281,11.093,18.281,11.459,13.999,11.459,11.448,12.445,14.273,13.758,11.448,16.131,9.332,14.273,15.034,10.586,16.131,15.217,6.562,18.881,15.767,4096.0,0.0,0.0,0,1688145442.2216,2023-06-30 19:17:22,Rest
106,0,2.816,6.679,2.277,2.449,2.622,4.637,0.997,6.113,8.606,8.606,1.861,10.066,1.861,10.066,3.251,8.349,3.251,4.264,1.674,0.426,1.449,4.264,1.258,2.15,0.426,4.773,0.33,1.258,3.931,-5.74,2.98,3.968,4096.0,0.0,0.0,0,1688145442.2294,2023-06-30 19:17:22,Rest
107,0,-4.36,-1.525,-5.922,-4.214,-6.09,-3.052,-7.201,-3.627,0.4,0.4,-6.338,-0.191,-6.338,-0.191,-8.023,-1.393,-8.023,-4.961,-6.525,-7.259,-7.262,-4.961,-7.453,-6.561,-7.259,-2.404,-3.769,-7.453,-4.782,-13.418,-3.17,-6.795,4096.0,0.0,0.0,0,1688145442.2373,2023-06-30 19:17:22,Rest
108,0,-2.818,-0.498,-4.892,-3.697,-6.084,-4.073,-2.07,-8.234,-0.112,-0.112,-7.356,-2.24,-7.356,-2.24,-4.429,-3.441,-4.429,-9.055,-7.03,-4.178,-4.181,-9.055,-2.322,-7.067,-4.178,1.185,-2.741,-2.322,-4.265,-13.917,-1.63,-5.251,4096.0,0.0,0.0,0,1688145442.2451,2023-06-30 19:17:22,Rest
109,0,-1.278,3.088,0.236,-1.644,-3.004,1.054,-1.044,-4.64,-0.112,-0.112,-2.226,-0.188,-2.226,-0.188,2.748,5.784,2.748,-2.386,-0.363,0.437,2.995,-2.386,2.291,-0.4,0.437,5.794,-3.763,2.291,1.887,-10.317,-0.604,1.927,4096.0,0.0,0.0,0,1688145442.2529,2023-06-30 19:17:22,Rest
110,0,3.846,12.307,7.921,4.505,2.122,6.688,2.544,2.025,0.4,0.4,4.949,2.886,4.949,2.886,3.257,9.365,3.257,9.4,6.809,7.097,9.652,9.4,8.436,5.236,7.097,13.985,1.877,8.436,7.52,-1.598,8.618,9.609,4096.0,0.0,0.0,0,1688145442.2607,2023-06-30 19:17:22,Rest
111,0,11.527,18.442,9.962,9.624,6.219,9.243,11.25,4.584,3.986,3.986,10.579,7.494,10.579,7.494,9.402,8.843,9.402,14.513,11.413,13.238,13.741,14.513,14.576,9.329,13.238,23.193,13.145,14.576,12.124,7.625,16.294,11.137,4096.0,0.0,0.0,0,1688145442.2685,2023-06-30 19:17:22,Rest
112,0,10.49,12.276,6.878,4.491,0.577,6.16,6.628,-0.031,3.47,3.47,9.032,6.974,9.032,6.974,11.954,13.957,11.954,10.4,10.89,11.175,11.166,10.4,9.438,10.856,11.175,21.12,15.182,9.438,12.624,8.13,11.155,3.953,4096.0,0.0,0.0,0,1688145442.2763,2023-06-30 19:17:22,Rest
113,0,0.234,4.579,2.26,-5.247,-8.133,-0.506,-4.137,-9.765,-3.706,-3.706,-0.199,-0.205,-0.199,-0.205,0.671,9.332,0.671,-0.881,0.12,1.43,1.933,-0.881,-0.305,1.624,1.43,9.316,4.408,-0.305,2.365,-5.198,4.483,-3.735,4096.0,0.0,0.0,0,1688145442.2841,2023-06-30 19:17:22,Rest
114,0,-2.328,3.55,-2.865,-5.754,-6.588,-4.604,-2.084,-10.267,-5.239,-5.239,-3.273,-2.767,-3.273,-2.767,-2.916,1.638,-2.916,-2.929,-4.491,-5.231,-0.63,-2.929,1.232,-4.525,-5.231,5.208,-0.72,1.232,-2.76,-12.877,1.405,-1.682,4096.0,0.0,0.0,0,1688145442.2919,2023-06-30 19:17:22,Rest
115,0,8.433,11.743,5.335,6.034,4.69,4.622,8.165,5.112,7.574,7.574,8.002,7.482,8.002,7.482,9.382,11.883,9.382,8.344,9.346,6.045,9.617,8.344,9.94,8.287,6.045,14.425,6.966,9.94,9.538,0.968,8.576,9.078,4096.0,0.0,0.0,0,1688145442.2998,2023-06-30 19:17:22,Rest
116,0,18.158,22.49,19.674,14.738,13.394,17.425,13.792,15.865,18.324,18.324,16.703,16.184,16.703,16.184,16.033,21.093,16.033,15.508,16.509,18.846,17.804,15.508,14.028,19.549,18.846,23.632,13.619,14.028,18.75,14.287,20.351,18.29,4096.0,0.0,0.0,0,1688145442.3076,2023-06-30 19:17:22,Rest
117,0,15.579,19.906,14.019,9.087,9.795,12.284,10.192,10.214,11.646,11.646,11.563,10.532,11.563,10.532,11.406,11.85,11.406,9.345,7.271,12.167,13.175,9.345,10.94,12.87,12.167,22.071,9.507,10.94,13.608,9.149,16.232,14.686,4096.0,0.0,0.0,0,1688145442.3154,2023-06-30 19:17:22,Rest
118,0,10.44,13.226,4.783,4.98,2.1,5.612,6.596,7.13,8.048,8.048,7.965,5.399,7.965,5.399,6.272,7.227,6.272,6.262,3.678,6.008,11.113,6.262,10.417,8.759,6.008,17.438,7.96,10.417,12.057,5.554,8.019,10.06,4096.0,0.0,0.0,0,1688145442.3232,2023-06-30 19:17:22,Rest
119,0,11.454,16.287,12.463,11.635,5.172,11.242,11.712,11.734,14.7,14.7,10.519,8.98,10.519,8.98,8.827,15.417,8.827,10.867,7.772,13.686,15.713,10.867,13.993,12.848,13.686,16.396,13.075,13.993,14.607,8.622,14.671,14.149,4096.0,0.0,0.0,0,1688145442.331,2023-06-30 19:17:22,Rest
120,0,7.344,13.197,11.939,9.062,9.265,8.669,9.139,7.624,9.05,9.05,5.898,6.409,5.898,6.409,7.281,14.377,7.281,6.757,4.178,9.062,10.061,6.757,10.393,5.151,9.062,12.282,8.964,10.393,8.957,1.441,12.607,10.036,4096.0,0.0,0.0,0,1688145442.3388,2023-06-30 19:17:22,Rest
121,0,-4.446,-2.186,-6.004,-3.243,-0.99,-4.66,-4.19,-3.655,-3.767,-3.767,-6.916,-3.331,-6.916,-3.331,-5.534,3.092,-5.534,-8.107,-4.535,-7.341,-5.318,-8.107,-2.425,-7.662,-7.341,0.486,-5.902,-2.425,-2.323,-12.905,-3.8,-5.343,4096.0,0.0,0.0,0,1688145442.3466,2023-06-30 19:17:22,Rest
122,0,-10.589,-7.307,-13.683,-8.875,-10.211,-6.192,-7.772,-7.237,-5.3,-5.3,-13.569,-8.451,-13.569,-8.451,-13.725,-1.522,-13.725,-13.734,-8.629,-9.895,-10.436,-13.734,-10.62,-9.191,-9.895,-6.174,-11.019,-10.62,-8.981,-19.552,-7.382,-10.973,4096.0,0.0,0.0,0,1688145442.3544,2023-06-30 19:17:22,Rest
123,0,-6.993,-1.664,-7.009,-7.841,-8.151,-2.599,-4.178,-7.23,-3.245,-3.245,-8.945,-5.881,-8.945,-5.881,-6.539,2.066,-6.539,-6.548,-8.62,-3.738,-5.302,-6.548,-7.023,-6.108,-3.738,-2.582,-4.348,-7.023,-6.922,-15.946,-1.739,-6.864,4096.0,0.0,0.0,0,1688145442.3623,2023-06-30 19:17:22,Rest
124,0,-5.449,-1.662,-5.977,-5.784,-6.094,-5.158,-6.223,-8.76,-6.828,-6.828,-4.837,-5.363,-4.837,-5.363,-4.483,3.088,-4.483,-4.492,-6.05,-5.271,-3.76,-4.492,-2.405,-6.102,-5.271,-0.53,-4.856,-2.405,-4.354,-15.418,-2.25,-4.808,4096.0,0.0,0.0,0,1688145442.3701,2023-06-30 19:17:22,Rest
125,0,-11.591,-6.272,-9.558,-4.754,-7.625,-7.715,-7.754,-8.239,-10.92,-10.92,-9.443,-10.481,-9.443,-10.481,-13.188,-2.55,-13.188,-10.635,-8.093,-9.876,-9.391,-10.635,-5.989,-10.707,-9.876,-5.653,-13.048,-5.989,-9.985,-22.575,-4.809,-6.34,4096.0,0.0,0.0,0,1688145442.3779,2023-06-30 19:17:22,Rest
126,0,-10.043,-5.241,-7.499,-5.261,-5.568,-7.195,-6.722,-7.206,-10.909,-10.909,-13.532,-14.056,-13.532,-14.056,-12.15,-3.572,-12.15,-10.625,-12.184,-8.842,-9.894,-10.625,-9.569,-9.159,-8.842,-2.061,-13.547,-9.569,-9.975,-23.577,-4.804,-7.358,4096.0,0.0,0.0,0,1688145442.3857,2023-06-30 19:17:22,Rest
127,0,1.238,-1.137,-5.954,-5.769,-5.05,-4.114,-6.203,-8.223,-6.799,-6.799,-7.883,-10.968,-7.883,-10.968,-4.453,2.067,-4.453,-5.491,-7.048,-5.759,-2.712,-5.491,-4.436,-0.953,-5.759,8.7,-5.849,-4.436,-0.231,-17.405,-2.238,-4.789,4096.0,0.0,0.0,0,1688145442.3935,2023-06-30 19:17:22,Rest
0,0,-1.837,-4.21,-10.047,-7.812,-10.68,-4.11,-7.733,-12.313,-9.354,-9.354,-5.826,-11.982,-5.826,-11.982,-8.547,-3.058,-8.547,-9.071,-8.578,-10.877,-7.833,-9.071,-6.481,-6.075,-10.877,5.105,-9.43,-6.481,-4.329,-24.56,-5.31,-4.784,0.0,0.0,0.0,0,1688145442.4013,2023-06-30 19:17:22,Rest
1,0,-15.155,-12.915,-15.672,-13.44,-14.768,-12.815,-15.41,-18.449,-18.054,-18.054,-16.067,-19.655,-16.067,-19.655,-19.81,-13.814,-19.81,-17.772,-22.402,-20.6,-20.632,-17.772,-17.746,-19.389,-20.6,-5.659,-22.74,-17.746,-19.694,-35.294,-16.575,-12.977,0.0,0.0,0.0,0,1688145442.4091,2023-06-30 19:17:22,Rest
2,0,-13.603,-11.365,-15.144,-11.377,-12.192,-13.314,-17.444,-16.893,-15.987,-15.987,-19.124,-18.098,-19.124,-18.098,-19.278,-9.702,-19.278,-17.754,-20.33,-18.017,-16.001,-17.754,-15.166,-15.271,-18.017,0.495,-18.619,-15.166,-16.601,-26.037,-13.485,-13.476,0.0,0.0,0.0,0,1688145442.4169,2023-06-30 19:17:22,Rest
3,0,-3.855,-3.157,-11.031,-5.218,-7.569,-3.567,-9.742,-10.217,-8.286,-8.286,-10.908,-10.908,-10.908,-10.908,-11.061,-4.057,-11.061,-10.052,-8.527,-7.241,-6.763,-10.052,-4.393,-6.035,-7.241,9.203,-5.28,-4.393,-4.289,-17.814,-2.713,-7.827,0.0,0.0,0.0,0,1688145442.4248,2023-06-30 19:17:22,Rest
4,0,-6.925,-6.227,-11.532,-8.286,-9.098,-6.125,-9.732,-11.231,-8.79,-8.79,-10.385,-11.409,-10.385,-11.409,-11.05,-9.688,-11.05,-9.529,-12.617,-7.234,-10.343,-9.529,-7.462,-10.127,-7.234,2.022,-9.374,-7.462,-7.871,-25.994,-8.345,-12.942,0.0,0.0,0.0,0,1688145442.4326,2023-06-30 19:17:22,Rest
5,0,-7.943,-8.783,-11.008,-8.79,-9.601,-11.242,-10.747,-8.146,-2.634,-2.634,-9.35,-6.275,-9.35,-6.275,-12.064,-0.969,-12.064,-9.007,-12.604,-8.251,-8.283,-9.007,-9.504,-8.068,-8.251,0.483,-11.926,-9.504,-9.912,-24.943,-8.849,-11.392,0.0,0.0,0.0,0,1688145442.4404,2023-06-30 19:17:22,Rest
6,0,4.36,6.083,0.786,3.514,0.654,2.602,3.608,6.207,12.226,12.226,3.979,9.101,3.979,9.101,0.756,21.061,0.756,5.859,6.876,2.516,8.119,5.859,3.826,5.773,2.516,11.753,2.943,3.826,3.93,-14.16,9.602,5.525,0.0,0.0,0.0,0,1688145442.4482,2023-06-30 19:17:22,Rest
7,0,8.454,13.249,6.933,8.121,5.265,8.747,7.703,8.25,11.701,11.701,7.561,8.58,7.561,8.58,8.44,18.991,8.44,14.562,11.48,7.636,11.697,14.562,9.457,6.279,7.636,12.254,6.526,9.457,6.488,-16.195,12.667,5.52,0.0,0.0,0.0,0,1688145442.456,2023-06-30 19:17:22,Rest
8,0,-0.263,-2.133,-3.32,-1.621,-4.987,-2.021,-6.137,-5.591,-1.118,-1.118,-5.254,-5.261,-5.254,-5.261,-2.839,3.09,-2.839,-0.309,-1.339,-0.568,-1.635,-0.309,-0.798,-2.436,-0.568,4.557,-3.726,-0.798,-3.765,-25.912,-0.154,-10.88,0.0,0.0,0.0,0,1688145442.4638,2023-06-30 19:17:22,Rest
9,0,-1.8,-6.742,-6.903,-7.767,-8.056,-4.068,-6.643,-7.634,-1.629,-1.629,-5.761,-3.719,-5.761,-3.719,-4.886,7.186,-4.886,-6.457,-4.412,-4.154,-5.732,-6.457,-4.896,-1.921,-4.154,6.602,-3.723,-4.896,-3.249,-28.96,-1.69,-12.406,0.0,0.0,0.0,0,1688145442.4716,2023-06-30 19:17:22,Rest
10,0,-0.774,0.95,-3.822,-6.735,-4.974,-2.527,-2.538,-4.553,1.446,1.446,-0.12,0.383,-0.12,0.383,0.754,11.277,0.754,-0.303,-4.92,-2.613,-1.115,-0.303,-2.33,0.13,-2.613,6.083,-3.719,-2.33,-1.196,-30.98,-0.152,-6.246,0.0,0.0,0.0,0,1688145442.4794,2023-06-30 19:17:22,Rest
11,0,-15.63,-11.859,-15.089,-13.9,-16.752,-15.332,-19.442,-16.844,-14.949,-14.949,-16.514,-18.573,-16.514,-18.573,-15.64,-10.251,-15.64,-16.696,-21.821,-16.955,-14.946,-16.696,-16.16,-14.727,-16.955,-7.756,-19.597,-16.16,-18.101,-43.757,-15.009,-16.998,0.0,0.0,0.0,0,1688145442.4873,2023-06-30 19:17:22,Rest
12,0,-31.496,-30.29,-31.98,-27.206,-30.567,-27.612,-34.279,-32.196,-33.89,-33.89,-38.014,-36.997,-38.014,-36.997,-36.117,-32.27,-36.117,-36.66,-37.168,-35.381,-37.985,-36.66,-35.099,-33.156,-35.381,-19.531,-34.946,-35.099,-33.452,-58.058,-31.9,-34.399,0.0,0.0,0.0,0,1688145442.4951,2023-06-30 19:17:22,Rest
13,0,-26.853,-26.161,-35.535,-30.253,-26.951,-26.047,-29.122,-34.213,-31.806,-31.806,-34.902,-31.837,-34.902,-31.837,-31.47,-28.139,-31.47,-29.963,-34.057,-33.809,-36.923,-29.963,-31.478,-30.561,-33.809,-18.487,-35.424,-31.478,-30.857,-54.414,-31.868,-34.877,0.0,0.0,0.0,0,1688145442.5029,2023-06-30 19:17:22,Rest
14,0,-19.654,-18.963,-27.302,-22.026,-20.776,-21.923,-23.97,-28.031,-22.553,-22.553,-23.596,-21.559,-23.596,-21.559,-22.729,-14.279,-22.729,-21.736,-25.314,-24.041,-24.59,-21.736,-20.688,-19.26,-24.041,-12.833,-27.704,-20.688,-24.166,-41.039,-22.102,-26.645,0.0,0.0,0.0,0,1688145442.5107,2023-06-30 19:17:22,Rest
15,0,-23.221,-20.993,-21.127,-18.418,-22.292,-20.364,-24.458,-23.905,-22.531,-22.531,-24.085,-20.001,-24.085,-20.001,-24.243,-12.728,-24.243,-25.813,-23.752,-24.017,-27.127,-25.813,-23.229,-21.802,-24.017,-11.283,-24.602,-23.229,-23.118,-42.023,-23.105,-24.57,0.0,0.0,0.0,0,1688145442.5185,2023-06-30 19:17:22,Rest
16,0,-25.247,-21.997,-23.667,-23.01,-22.782,-20.344,-23.921,-24.905,-25.07,-25.07,-26.11,-23.567,-26.11,-23.567,-24.219,-15.789,-24.219,-25.275,-24.753,-27.067,-28.637,-25.275,-26.279,-26.903,-27.067,-11.784,-29.701,-26.279,-25.144,-47.616,-28.205,-25.057,0.0,0.0,0.0,0,1688145442.5263,2023-06-30 19:17:22,Rest
17,0,-25.222,-24.024,-30.816,-26.061,-23.272,-23.397,-25.946,-28.979,-27.094,-27.094,-26.596,-26.617,-26.596,-26.617,-27.269,-15.261,-27.269,-23.712,-25.753,-29.089,-25.022,-23.712,-26.253,-26.364,-29.089,-12.797,-32.232,-26.253,-27.68,-45.007,-25.615,-26.057,0.0,0.0,0.0,0,1688145442.5341,2023-06-30 19:17:22,Rest
18,0,-28.782,-29.123,-30.273,-25.522,-26.322,-23.886,-26.945,-29.975,-27.579,-27.579,-28.619,-25.054,-28.619,-25.054,-30.828,-14.733,-30.828,-26.25,-25.727,-30.085,-30.12,-26.25,-29.3,-27.875,-30.085,-13.297,-30.151,-29.3,-26.628,-48.036,-23.54,-31.666,0.0,0.0,0.0,0,1688145442.5419,2023-06-30 19:17:22,Rest
19,0,-28.241,-28.069,-29.218,-29.083,-27.321,-23.862,-26.406,-29.432,-23.965,-23.965,-29.615,-22.467,-29.615,-22.467,-28.235,-14.718,-28.235,-27.761,-28.263,-30.054,-34.701,-27.761,-30.808,-30.408,-30.054,-17.382,-34.219,-30.808,-26.601,-54.648,-27.615,-35.221,0.0,0.0,0.0,0,1688145442.5498,2023-06-30 19:17:22,Rest
20,0,-27.701,-28.554,-34.312,-32.64,-29.855,-28.962,-29.966,-30.94,-27.015,-27.015,-30.61,-27.568,-30.61,-27.568,-29.744,-18.29,-29.744,-30.295,-31.82,-33.611,-34.666,-30.295,-29.24,-31.402,-33.611,-23.0,-37.771,-29.24,-30.673,-55.106,-31.686,-36.21,0.0,0.0,0.0,0,1688145442.5576,2023-06-30 19:17:22,Rest
21,0,-26.136,-25.451,-29.667,-24.411,-27.263,-25.859,-25.837,-26.298,-30.574,-30.574,-25.456,-27.028,-25.456,-27.028,-28.177,-18.272,-28.177,-24.629,-24.616,-28.454,-30.021,-24.629,-21.526,-27.273,-28.454,-16.317,-27.487,-21.526,-25.007,-49.415,-27.556,-32.075,0.0,0.0,0.0,0,1688145442.5654,2023-06-30 19:17:22,Rest
22,0,-11.253,-9.032,-12.219,-9.017,-9.818,-8.414,-9.418,-9.366,-13.637,-13.637,-6.476,-9.07,-6.476,-9.07,-9.706,-5.446,-9.706,-4.112,-6.149,-7.933,-8.474,-4.112,-4.086,-11.364,-7.933,0.606,-10.554,-4.086,-7.564,-34.509,-9.085,-15.65,0.0,0.0,0.0,0,1688145442.5732,2023-06-30 19:17:22,Rest
23,0,2.59,3.272,-2.473,-0.811,1.463,0.816,-0.699,0.378,2.258,2.258,3.777,3.747,3.777,3.747,0.037,4.294,0.037,3.577,-0.507,0.272,6.904,3.577,2.065,-0.082,0.272,8.802,-3.883,2.065,1.666,-18.593,4.756,-3.338,0.0,0.0,0.0,0,1688145442.581,2023-06-30 19:17:22,Rest
24,0,-0.486,0.195,-5.032,-2.347,-3.662,-3.796,-4.797,-4.746,-3.38,-3.38,-3.399,-0.868,-3.399,-0.868,-5.086,2.24,-5.086,-6.161,-5.117,-7.413,-2.837,-6.161,-4.084,-4.18,-7.413,5.719,-7.978,-4.084,-0.898,-19.086,-1.396,-7.946,0.0,0.0,0.0,0,1688145442.5888,2023-06-30 19:17:22,Rest
25,0,1.051,3.781,0.096,3.803,-2.121,0.819,-0.693,-1.667,-3.377,-3.377,0.191,-0.867,0.191,-0.867,1.579,5.824,1.579,-2.568,2.572,-1.258,-1.297,-2.568,3.092,-4.176,-1.258,9.812,-3.359,3.092,1.665,-20.604,-0.37,-3.327,0.0,0.0,0.0,0,1688145442.5966,2023-06-30 19:17:22,Rest
26,0,9.247,13.511,8.806,14.045,9.664,9.527,7.504,11.654,5.848,5.848,9.924,7.843,9.924,7.843,8.75,9.917,8.75,7.68,10.254,8.477,13.561,7.68,11.286,6.587,8.477,16.975,8.428,11.286,8.323,-14.436,14.487,11.533,0.0,0.0,0.0,0,1688145442.6044,2023-06-30 19:17:22,Rest
27,0,0.529,6.325,1.112,5.834,3.507,0.808,-1.212,5.495,-2.354,-2.354,0.693,2.712,0.693,2.712,-2.017,-2.389,-2.017,-3.086,-2.564,-3.314,1.764,-3.086,-1.533,0.945,-3.314,8.761,1.759,-1.533,2.167,-22.106,6.788,3.325,0.0,0.0,0.0,0,1688145442.6123,2023-06-30 19:17:22,Rest
28,0,-14.329,-8.025,-14.771,-8.516,-13.915,-12.513,-14.531,-12.954,-17.209,-17.209,-14.165,-12.66,-14.165,-12.66,-14.31,-13.657,-14.31,-16.403,-16.906,-18.168,-16.68,-16.403,-14.339,-14.425,-18.168,-5.08,-19.247,-14.339,-11.155,-37.453,-12.174,-16.146,0.0,0.0,0.0,0,1688145442.6201,2023-06-30 19:17:22,Rest
29,0,-14.314,-9.554,-14.243,-6.458,-13.901,-10.451,-12.468,-12.941,-16.679,-16.679,-13.638,-14.696,-13.638,-14.696,-15.321,-12.106,-15.321,-13.825,-14.839,-17.125,-11.541,-13.825,-12.276,-14.923,-17.125,-6.1,-22.814,-12.276,-13.193,-37.416,-8.063,-15.106,0.0,0.0,0.0,0,1688145442.6279,2023-06-30 19:17:22,Rest
30,0,-12.251,-7.496,-9.618,-4.915,-8.252,-9.928,-10.406,-7.805,-14.101,-14.101,-11.063,-11.095,-11.063,-11.095,-14.793,-9.533,-14.793,-13.299,-12.775,-17.62,-10.505,-13.299,-12.776,-11.322,-17.62,-5.582,-15.107,-12.776,-12.155,-35.842,-3.445,-10.992,0.0,0.0,0.0,0,1688145442.6357,2023-06-30 19:17:22,Rest
31,0,-20.948,-15.685,-22.417,-17.206,-15.928,-20.677,-21.154,-18.043,-24.333,-24.333,-20.274,-17.744,-20.274,-17.744,-21.951,-13.622,-21.951,-24.556,-23.521,-26.824,-24.326,-24.556,-21.472,-22.582,-26.824,-17.359,-25.85,-21.472,-22.902,-48.613,-16.249,-21.74,0.0,0.0,0.0,0,1688145442.6435,2023-06-30 19:17:22,Rest
32,0,-34.759,-30.014,-38.276,-26.41,-25.646,-29.365,-32.916,-27.759,-34.043,-34.043,-32.549,-26.436,-32.549,-26.436,-36.273,-20.78,-36.273,-35.29,-36.305,-37.556,-36.597,-35.29,-33.234,-35.879,-37.556,-30.662,-45.804,-33.234,-35.174,-60.86,-29.553,-33.501,3968.0,0.0,0.0,0,1688145442.6513,2023-06-30 19:17:22,Rest
33,0,-40.36,-38.181,-40.799,-27.92,-27.158,-29.848,-35.444,-27.731,-27.861,-27.861,-36.615,-24.36,-36.615,-24.36,-40.848,-21.272,-40.848,-37.816,-36.269,-45.715,-42.708,-37.816,-41.91,-39.429,-45.715,-32.68,-48.832,-41.91,-37.188,-65.922,-36.183,-41.664,3968.0,0.0,0.0,0,1688145442.6591,2023-06-30 19:17:22,Rest
34,0,-29.561,-29.433,-34.098,-24.306,-23.544,-24.695,-25.163,-23.092,-14.001,-14.001,-27.357,-13.065,-27.357,-13.065,-27.487,-6.394,-27.487,-32.143,-25.987,-41.059,-35.493,-32.143,-35.208,-32.73,-41.059,-26.5,-37.0,-35.208,-29.466,-62.783,-32.048,-38.549,3968.0,0.0,0.0,0,1688145442.6669,2023-06-30 19:17:22,Rest
35,0,-15.699,-14.035,-22.281,-14.548,-15.836,-14.937,-12.842,-12.823,-9.376,-9.376,-15.034,-5.367,-15.034,-5.367,-16.189,4.371,-16.189,-17.766,-17.251,-24.112,-17.527,-17.766,-18.267,-19.889,-24.112,-15.715,-25.693,-18.267,-18.166,-48.887,-15.11,-22.116,4096.0,0.0,0.0,0,1688145442.6748,2023-06-30 19:17:22,Rest
36,0,-11.073,-6.848,-10.476,-8.386,-9.673,-8.262,-11.292,-8.2,-11.928,-11.928,-10.408,-7.411,-10.408,-7.411,-13.611,-7.416,-13.611,-6.478,-9.037,-10.768,-8.8,-6.478,-6.465,-9.111,-10.768,-7.502,-14.396,-6.465,-8.414,-36.543,-2.8,-12.873,4096.0,0.0,0.0,0,1688145442.6826,2023-06-30 19:17:22,Rest
37,0,-4.914,-2.743,-5.854,-5.304,-8.126,-6.204,-9.232,-10.241,-10.892,-10.892,-6.811,-7.916,-6.811,-7.916,-7.45,-16.63,-7.45,-4.934,-1.856,-4.609,-3.669,-4.934,-3.385,-5.003,-4.609,-1.859,-3.623,-3.385,-2.258,-30.359,3.863,-12.348,4096.0,0.0,0.0,0,1688145442.6904,2023-06-30 19:17:22,Rest
38,0,0.214,0.846,-5.336,-1.2,-5.556,-1.587,-1.538,-6.644,-7.807,-7.807,-2.706,-2.785,-2.706,-2.785,-2.319,-10.466,-2.319,-4.93,-3.903,-3.068,1.97,-4.93,-2.869,-3.974,-3.068,1.729,-1.058,-2.869,1.33,-24.693,8.47,-4.651,4096.0,0.0,0.0,0,1688145442.6982,2023-06-30 19:17:22,Rest
39,0,-4.909,-0.18,-4.819,-1.199,-4.014,-0.561,-2.561,-5.613,-6.775,-6.775,-3.728,-5.344,-3.728,-5.344,-3.854,-9.431,-3.854,-2.875,-7.998,-8.188,-2.642,-2.875,-3.379,-2.433,-8.188,-0.322,-5.156,-3.379,-1.745,-28.767,4.363,-2.597,4096.0,0.0,0.0,0,1688145442.706,2023-06-30 19:17:22,Rest
40,0,-0.293,2.382,-0.203,-0.173,-2.985,-1.073,-3.583,-5.095,-2.157,-2.157,-0.651,-5.851,-0.651,-5.851,-0.776,-8.909,-0.776,-0.311,-0.305,-6.13,-0.59,-0.311,0.723,0.643,-6.13,0.703,-3.101,0.723,-0.718,-31.3,4.871,-5.668,4096.0,0.0,0.0,0,1688145442.7138,2023-06-30 19:17:22,Rest
41,0,13.539,15.7,10.043,13.147,8.289,9.687,9.74,11.304,6.554,6.554,11.133,12.086,11.133,12.086,8.959,5.957,8.959,8.911,10.454,9.758,16.829,8.911,13.018,9.352,9.758,11.46,7.66,13.018,11.065,-16.412,20.748,10.219,4096.0,0.0,0.0,0,1688145442.7216,2023-06-30 19:17:22,Rest
42,0,12.501,21.832,15.156,19.282,16.477,16.849,14.854,20.514,10.134,10.134,13.171,20.271,13.171,20.271,12.536,16.197,12.536,13.0,11.98,17.432,20.398,13.0,17.616,13.953,17.432,14.523,9.702,17.616,15.153,-11.784,26.362,19.431,4096.0,0.0,0.0,0,1688145442.7294,2023-06-30 19:17:22,Rest
43,0,5.316,12.076,7.457,10.041,7.751,7.611,5.617,6.661,6.025,6.025,5.473,9.492,5.473,9.492,6.376,10.033,6.376,5.303,7.87,8.706,7.57,5.303,6.327,7.279,8.706,4.262,0.471,6.327,8.99,-27.654,16.602,3.53,4096.0,0.0,0.0,0,1688145442.7373,2023-06-30 19:17:22,Rest
44,0,10.434,8.99,6.425,10.031,5.694,5.554,8.173,5.63,8.581,8.581,9.054,13.069,9.054,13.069,6.881,12.584,6.881,7.859,11.96,7.672,11.148,7.859,4.272,6.76,7.672,4.77,1.495,4.272,11.542,-26.09,16.073,3.526,4096.0,0.0,0.0,0,1688145442.7451,2023-06-30 19:17:22,Rest
45,0,17.084,19.227,15.127,19.755,14.91,15.795,16.874,18.944,16.769,16.769,17.754,25.351,17.754,25.351,18.145,23.843,18.145,20.659,22.194,16.374,24.97,20.659,18.612,16.487,16.374,14.499,13.276,18.612,17.166,-13.768,23.742,18.379,4096.0,0.0,0.0,0,1688145442.7529,2023-06-30 19:17:22,Rest
46,0,12.968,17.159,13.063,14.1,9.26,12.705,9.173,12.778,14.191,14.191,12.614,15.592,12.614,15.592,15.566,18.696,15.566,17.052,19.098,13.284,19.822,17.052,18.081,12.884,13.284,9.362,11.214,18.081,11.001,-22.976,19.62,9.652,4096.0,0.0,0.0,0,1688145442.7607,2023-06-30 19:17:22,Rest
47,0,5.783,4.846,3.828,3.327,-0.483,4.495,0.454,2.519,6.492,6.492,4.916,3.793,4.916,3.793,4.279,6.382,4.279,9.35,7.296,6.098,8.531,9.35,4.743,1.601,6.098,1.668,0.957,4.743,5.355,-30.637,11.915,-3.166,4096.0,0.0,0.0,0,1688145442.7685,2023-06-30 19:17:22,Rest
48,0,7.826,9.452,4.849,8.447,6.69,7.565,5.577,8.664,10.584,10.584,9.522,10.449,9.522,10.449,10.423,7.4,10.423,13.952,10.363,10.703,13.646,13.952,9.861,8.259,10.703,10.887,5.054,9.861,9.448,-20.873,16.002,5.547,4096.0,0.0,0.0,0,1688145442.7763,2023-06-30 19:17:22,Rest
49,0,15.503,18.664,10.992,16.635,12.831,11.656,10.182,14.803,17.746,17.746,14.636,16.074,14.636,16.074,18.609,10.979,18.609,15.987,17.012,15.303,20.292,15.987,20.098,17.472,15.303,17.537,13.758,20.098,14.05,-15.729,24.183,11.689,4096.0,0.0,0.0,0,1688145442.7841,2023-06-30 19:17:22,Rest
50,0,15.487,15.059,14.567,15.594,11.281,12.669,10.172,15.813,20.29,20.29,14.109,15.034,14.109,15.034,12.955,10.968,12.955,12.897,12.897,14.263,18.735,12.897,16.491,12.332,14.263,12.908,14.769,16.491,16.085,-18.787,22.109,9.628,4096.0,0.0,0.0,0,1688145442.7919,2023-06-30 19:17:22,Rest
51,0,12.398,15.044,15.577,15.578,15.368,14.705,11.699,19.383,22.319,22.319,15.119,15.531,15.119,15.531,13.455,13.518,13.455,15.958,13.396,15.786,18.204,15.958,15.45,11.295,15.786,13.408,13.217,15.45,16.581,-17.744,20.038,12.692,4096.0,0.0,0.0,0,1688145442.7998,2023-06-30 19:17:22,Rest
52,0,10.849,16.054,10.439,15.051,13.304,10.08,8.613,15.778,18.198,18.198,12.03,13.978,12.03,13.978,13.953,12.992,13.953,12.356,12.871,12.696,16.136,12.356,15.435,12.82,12.696,13.907,8.081,15.435,10.929,-21.824,20.018,10.118,4096.0,0.0,0.0,0,1688145442.8076,2023-06-30 19:17:22,Rest
53,0,4.69,6.304,-0.33,6.326,4.581,2.385,1.432,7.565,6.909,6.909,-1.302,8.329,-1.302,8.329,1.132,6.832,1.132,-0.464,0.562,1.413,4.337,-0.464,2.612,2.049,1.413,3.647,-2.173,2.612,3.746,-33.073,10.264,2.423,3968.0,0.0,0.0,0,1688145442.8154,2023-06-30 19:17:22,Rest
54,0,0.075,2.199,-3.404,4.271,6.113,1.358,0.919,6.533,4.853,4.853,-3.35,6.272,-3.35,6.272,0.106,5.288,0.106,-4.05,-2.0,-4.737,-0.278,-4.05,-4.051,-2.564,-4.737,1.594,-5.757,-4.051,5.279,-35.09,3.082,2.421,4096.0,0.0,0.0,0,1688145442.8232,2023-06-30 19:17:22,Rest
55,0,10.833,12.443,7.87,14.0,10.718,7.504,8.09,13.698,11.508,11.508,9.461,9.339,9.461,9.339,12.401,7.332,12.401,5.688,9.785,4.49,11.505,5.688,10.81,8.71,4.49,15.424,3.47,10.81,14.495,-20.71,13.837,9.079,4096.0,0.0,0.0,0,1688145442.831,2023-06-30 19:17:22,Rest
56,0,27.216,23.702,22.207,22.183,14.806,18.255,15.766,22.906,17.644,17.644,21.235,19.064,21.235,19.064,20.074,13.472,20.074,20.54,20.534,22.416,28.4,20.54,27.193,20.996,22.416,29.241,18.324,27.193,25.239,-2.758,27.655,19.828,4096.0,0.0,0.0,0,1688145442.8388,2023-06-30 19:17:22,Rest
57,0,33.337,33.924,29.87,26.772,27.086,27.971,24.46,30.568,26.848,26.848,28.386,31.852,28.386,31.852,28.763,28.828,28.763,33.839,32.297,33.664,41.692,33.839,35.363,30.709,33.664,36.897,28.552,35.363,33.923,3.392,36.849,29.542,4096.0,0.0,0.0,0,1688145442.8466,2023-06-30 19:17:22,Rest
58,0,36.889,41.062,33.426,32.893,32.182,30.505,30.071,34.636,35.53,35.53,37.067,37.968,37.067,37.968,39.492,39.045,39.492,40.977,42.51,34.655,47.285,40.977,40.45,37.338,34.655,39.934,35.183,40.45,40.037,4.413,45.009,34.123,4096.0,0.0,0.0,0,1688145442.8544,2023-06-30 19:17:22,Rest
59,0,41.976,38.972,35.954,34.397,28.052,30.986,33.115,38.7,35.495,35.495,38.567,38.955,38.567,38.955,40.478,37.469,40.478,40.936,41.956,37.182,47.75,40.936,41.947,39.35,37.182,38.869,38.734,41.947,42.046,7.995,45.989,35.114,4096.0,0.0,0.0,0,1688145442.8623,2023-06-30 19:17:22,Rest
60,0,37.323,32.785,31.82,31.289,30.073,29.418,30.008,38.149,31.873,31.873,31.868,36.867,31.868,36.867,35.826,32.821,35.826,34.748,32.692,36.12,42.579,34.748,35.757,35.212,36.12,34.732,32.548,35.757,34.319,1.327,37.746,30.468,4096.0,0.0,0.0,0,1688145442.8701,2023-06-30 19:17:22,Rest
61,0,22.941,24.556,18.98,22.548,25.432,19.655,17.17,25.815,25.181,25.181,21.59,25.559,21.59,25.559,25.032,24.591,25.032,22.418,19.852,18.666,27.68,22.418,25.988,21.857,18.666,20.352,21.757,25.988,20.453,-11.994,26.95,19.167,4096.0,0.0,0.0,0,1688145442.8779,2023-06-30 19:17:22,Rest
62,0,13.184,15.31,12.301,11.767,13.111,10.926,7.419,16.056,16.447,16.447,13.884,16.824,13.884,16.824,13.224,15.345,13.224,13.686,15.221,6.864,17.406,13.686,18.789,11.077,6.864,7.524,16.612,18.789,14.285,-14.544,20.775,12.487,4096.0,0.0,0.0,0,1688145442.8857,2023-06-30 19:17:22,Rest
63,0,14.708,13.757,14.338,11.243,13.098,12.452,10.485,18.601,19.504,19.504,13.87,19.881,13.87,19.881,16.285,18.404,16.285,16.746,20.329,13.517,21.999,16.746,15.184,15.164,13.517,10.591,10.96,15.184,15.807,-14.017,19.73,10.426,4096.0,0.0,0.0,0,1688145442.8935,2023-06-30 19:17:22,Rest
64,0,16.23,14.768,12.787,13.281,13.597,12.952,10.987,18.07,24.608,24.608,14.881,20.374,14.881,20.374,18.83,22.996,18.83,18.779,16.723,14.016,19.416,18.779,12.608,14.637,14.016,12.117,5.313,12.608,13.742,-19.126,18.686,7.341,0.0,0.0,0.0,0,1688145442.9013,2023-06-30 19:17:22,Rest
65,0,12.628,10.143,8.675,8.145,7.436,8.328,4.316,12.929,14.849,14.849,10.767,14.205,10.767,14.205,11.639,12.215,11.639,14.149,9.021,7.342,9.15,14.149,12.595,6.425,7.342,3.908,6.845,12.595,9.63,-20.644,14.568,6.822,0.0,0.0,0.0,0,1688145442.9091,2023-06-30 19:17:22,Rest
66,0,8.004,6.546,8.154,6.6,9.478,6.783,3.287,13.941,6.125,6.125,8.195,10.093,8.195,10.093,8.041,4.518,8.041,9.524,10.549,6.31,10.678,9.524,11.558,6.931,6.31,4.929,5.813,11.558,8.083,-19.086,11.48,7.839,0.0,0.0,0.0,0,1688145442.9169,2023-06-30 19:17:22,Rest
67,0,-1.225,0.392,-0.051,3.007,5.37,2.166,-1.839,6.754,2.533,2.533,1.015,1.886,1.015,1.886,0.348,5.026,0.348,-0.731,2.342,-2.918,3.495,-0.731,-0.749,-0.248,-2.918,3.899,-7.0,-0.749,-0.122,-27.264,0.71,-1.39,0.0,0.0,0.0,0,1688145442.9248,2023-06-30 19:17:22,Rest
68,0,-16.593,-13.441,-15.932,-14.415,-13.079,-11.669,-18.231,-14.769,-12.327,-12.327,-14.868,-12.461,-14.868,-12.461,-16.046,-3.689,-16.046,-16.1,-15.591,-16.747,-18.538,-16.1,-17.654,-19.203,-16.747,-8.4,-18.264,-17.654,-11.904,-38.508,-14.148,-17.27,0.0,0.0,0.0,0,1688145442.9326,2023-06-30 19:17:22,Rest
69,0,-16.577,-15.989,-17.965,-20.036,-17.164,-15.756,-20.262,-17.828,-19.486,-19.486,-16.902,-15.522,-16.902,-15.522,-17.567,-10.345,-17.567,-16.596,-15.576,-14.169,-19.544,-16.596,-16.612,-19.184,-14.169,-8.904,-17.221,-16.612,-13.43,-37.445,-13.621,-20.327,0.0,0.0,0.0,0,1688145442.9404,2023-06-30 19:17:22,Rest
70,0,-2.728,-2.653,-6.164,-3.109,-3.827,-5.494,-6.922,-1.417,-5.635,-5.635,-2.541,-3.723,-2.541,-3.723,-3.717,-0.088,-3.717,-2.747,-3.777,-6.47,-1.081,-2.747,-1.739,-3.283,-6.47,2.888,-6.445,-1.739,-3.682,-26.136,-2.849,-7.499,0.0,0.0,0.0,0,1688145442.9482,2023-06-30 19:17:22,Rest
71,0,-0.676,4.01,-0.523,3.041,1.3,-0.878,-2.304,1.659,-0.506,-0.506,4.634,2.428,4.634,2.428,2.434,8.109,2.434,4.428,0.837,-1.853,3.531,4.428,5.948,0.306,-1.853,4.422,1.246,5.948,2.981,-18.938,1.765,-1.343,0.0,0.0,0.0,0,1688145442.956,2023-06-30 19:17:22,Rest
72,0,-6.31,-0.092,-4.108,-5.671,-2.8,-2.926,-7.937,-5.515,-10.239,-10.239,1.556,-3.722,1.556,-3.722,-1.154,4.002,-1.154,2.374,0.836,2.76,-0.571,2.374,3.38,-4.305,2.76,-2.755,-2.342,3.38,0.417,-23.53,2.275,-8.002,0.0,0.0,0.0,0,1688145442.9638,2023-06-30 19:17:22,Rest
73,0,-0.156,-3.166,-6.154,-3.616,-3.821,-2.411,-9.466,-5.51,-10.741,-10.741,1.042,-5.768,1.042,-5.768,-0.641,2.461,-0.641,2.884,-0.189,-0.317,0.454,2.884,-0.722,-3.276,-0.317,-4.289,-7.975,-0.722,-1.633,-28.629,1.248,-9.531,0.0,0.0,0.0,0,1688145442.9716,2023-06-30 19:17:22,Rest
74,0,7.528,-0.089,-2.049,2.535,0.281,0.666,-2.797,-0.381,-1.509,-1.509,5.652,2.435,5.652,2.435,7.045,4.508,7.045,7.492,1.86,-1.854,5.577,7.492,0.816,2.363,-1.854,1.863,-2.844,0.816,4.517,-20.916,3.808,-0.3,0.0,0.0,0.0,0,1688145442.9794,2023-06-30 19:17:22,Rest
75,0,8.545,8.108,7.175,6.119,5.404,6.3,6.428,8.841,5.665,5.665,11.794,8.58,11.794,8.58,12.161,5.528,12.161,12.095,9.543,8.907,13.256,12.095,10.037,8.508,8.907,9.546,8.43,10.037,12.709,-9.624,13.026,6.873,0.0,0.0,0.0,0,1688145442.9873,2023-06-30 19:17:22,Rest
76,0,15.709,17.321,13.827,13.797,8.472,11.929,10.52,16.004,10.782,10.782,15.368,11.646,15.368,11.646,13.173,9.621,13.173,16.182,14.144,15.558,18.878,16.182,17.199,14.135,15.558,14.147,16.619,17.199,16.795,-7.565,18.649,11.477,0.0,0.0,0.0,0,1688145442.9951,2023-06-30 19:17:22,Rest
77,0,22.866,18.841,14.326,15.833,13.074,14.991,10.509,14.964,15.382,15.382,17.402,17.782,17.402,17.782,18.795,17.808,18.795,21.289,17.716,13.493,22.445,21.289,18.719,17.195,13.493,17.719,18.651,18.719,20.364,-7.046,20.679,16.588,0.0,0.0,0.0,0,1688145443.0029,2023-06-30 19:17:23,Rest
78,0,17.207,15.748,13.799,9.157,14.598,16.001,9.986,13.412,15.367,15.367,18.409,20.325,18.409,20.325,22.363,20.864,22.363,22.804,22.309,16.553,23.447,22.804,18.7,17.177,16.553,18.214,15.559,18.7,20.344,-3.965,20.146,15.547,0.0,0.0,0.0,0,1688145443.0107,2023-06-30 19:17:23,Rest
79,0,11.555,14.195,12.761,7.611,6.387,10.862,5.366,12.886,7.667,7.667,13.268,15.694,13.268,15.694,14.656,16.745,14.656,16.634,15.627,17.049,17.276,16.634,16.12,13.062,17.049,12.048,11.445,16.12,14.688,-8.059,13.466,8.871,0.0,0.0,0.0,0,1688145443.0185,2023-06-30 19:17:23,Rest
80,0,17.179,17.255,12.748,13.239,6.893,8.802,4.848,12.361,5.61,5.61,14.279,16.191,14.279,16.191,14.641,20.827,14.641,15.592,13.05,13.958,17.771,15.592,17.641,12.536,13.958,13.573,12.97,17.641,15.186,-8.563,14.989,8.863,0.0,0.0,0.0,0,1688145443.0263,2023-06-30 19:17:23,Rest
81,0,27.408,24.41,20.932,19.373,22.255,21.088,18.163,22.082,18.924,18.924,28.097,25.396,28.097,25.396,26.922,32.077,26.922,28.384,29.943,23.166,33.123,28.384,28.381,22.77,23.166,27.391,23.716,28.381,26.441,4.765,30.344,19.612,0.0,0.0,0.0,0,1688145443.0341,2023-06-30 19:17:23,Rest
82,0,30.454,26.947,27.571,22.428,24.282,28.752,23.268,27.695,26.078,26.078,30.118,29.469,30.118,29.469,30.481,31.02,30.481,36.553,37.085,30.827,37.7,36.553,30.915,27.87,30.827,28.388,28.815,30.915,30.513,10.908,32.875,24.203,0.0,0.0,0.0,0,1688145443.0419,2023-06-30 19:17:23,Rest
83,0,20.69,18.211,19.347,17.282,11.962,18.477,10.949,16.397,14.781,14.781,18.817,23.292,18.817,23.292,22.254,23.816,22.254,26.783,24.753,22.087,24.343,26.783,20.638,18.109,22.087,15.04,21.102,20.638,21.261,0.651,21.059,15.47,0.0,0.0,0.0,0,1688145443.0498,2023-06-30 19:17:23,Rest
84,0,11.96,13.07,9.081,9.068,9.389,12.311,6.84,8.696,7.081,7.081,16.749,15.584,16.749,15.584,18.645,27.379,18.645,19.071,20.117,16.43,19.707,19.071,16.518,11.943,16.43,11.951,14.42,16.518,15.605,-2.424,18.476,7.77,0.0,0.0,0.0,0,1688145443.0576,2023-06-30 19:17:23,Rest
85,0,17.071,15.106,13.683,7.522,8.867,16.397,13.493,10.224,10.66,10.66,19.806,14.544,19.806,14.544,18.626,24.79,18.626,23.663,23.684,20.0,23.786,23.663,18.551,13.98,20.0,15.013,15.431,18.551,18.15,3.214,19.995,8.787,0.0,0.0,0.0,0,1688145443.0654,2023-06-30 19:17:23,Rest
86,0,21.665,16.628,20.842,13.662,8.346,15.868,11.943,14.825,13.211,13.211,19.274,17.603,19.274,17.603,18.096,16.056,18.096,25.176,22.123,21.516,24.275,25.176,19.557,14.478,21.516,13.461,15.928,19.557,19.669,8.334,20.487,13.901,0.0,0.0,0.0,0,1688145443.0732,2023-06-30 19:17:23,Rest
87,0,21.643,22.759,22.87,23.895,20.121,20.463,13.98,27.105,18.833,18.833,24.89,23.221,24.89,23.221,25.25,23.212,25.25,26.688,26.199,25.081,30.398,26.688,26.198,19.075,25.081,21.132,22.572,26.198,24.773,17.035,28.664,23.621,0.0,0.0,0.0,0,1688145443.081,2023-06-30 19:17:23,Rest
88,0,26.745,30.421,24.896,28.481,25.736,28.127,23.187,33.226,26.499,26.499,28.964,26.784,28.964,26.784,28.811,30.361,28.811,31.272,29.247,28.642,33.954,31.272,28.733,26.228,28.642,29.308,29.209,28.733,30.896,23.678,35.295,30.257,0.0,0.0,0.0,0,1688145443.0888,2023-06-30 19:17:23,Rest
89,0,21.595,19.632,18.724,17.694,13.415,16.828,14.967,18.336,17.251,17.251,15.615,16.511,15.615,16.511,16.999,14.449,16.999,18.945,16.922,16.83,18.038,18.945,14.36,15.956,16.83,14.422,16.884,14.36,20.619,12.896,23.989,18.956,0.0,0.0,0.0,0,1688145443.0966,2023-06-30 19:17:23,Rest
90,0,2.105,3.731,3.848,4.869,4.692,0.418,-2.978,6.534,-1.209,-1.209,1.767,0.613,1.767,0.613,2.637,-1.447,2.637,-0.029,1.024,-0.093,1.114,-0.029,1.538,-1.991,-0.093,-2.499,-1.063,1.538,2.667,0.075,8.083,2.031,0.0,0.0,0.0,0,1688145443.1044,2023-06-30 19:17:23,Rest
91,0,0.566,7.313,4.357,9.475,6.224,5.028,1.123,10.626,1.354,1.354,5.864,3.174,5.864,3.174,3.147,1.116,3.147,3.557,1.535,1.444,6.236,3.557,7.684,-0.965,1.444,4.676,4.061,7.684,3.689,6.223,10.124,4.078,0.0,0.0,0.0,0,1688145443.1123,2023-06-30 19:17:23,Rest
92,0,16.96,21.65,20.234,19.712,12.878,16.806,15.467,17.276,17.746,17.746,17.641,17.003,17.641,17.003,13.902,10.849,13.902,17.898,14.854,15.275,21.087,17.898,19.459,12.869,15.275,19.528,19.426,19.459,17.518,20.049,24.459,17.394,0.0,0.0,0.0,0,1688145443.1201,2023-06-30 19:17:23,Rest
93,0,19.504,23.166,22.263,20.204,20.55,18.326,15.451,20.845,19.778,19.778,19.672,18.011,19.672,18.011,19.524,14.937,19.524,17.88,18.937,18.846,25.164,17.88,18.415,17.979,18.846,21.046,21.456,18.415,20.574,25.152,29.045,20.451,0.0,0.0,0.0,0,1688145443.1279,2023-06-30 19:17:23,Rest
94,0,11.8,14.946,13.019,16.086,15.919,14.722,11.337,17.75,10.536,10.536,12.48,10.308,12.48,10.308,13.869,9.286,13.869,13.252,10.209,12.167,18.479,13.252,11.737,12.838,12.167,14.877,15.799,11.737,15.43,21.028,21.844,13.77,0.0,0.0,0.0,0,1688145443.1357,2023-06-30 19:17:23,Rest
95,0,14.862,14.931,15.055,14.533,6.169,14.195,13.887,12.609,10.526,10.526,14.005,13.884,14.005,13.884,13.343,9.277,13.343,18.362,14.297,14.717,18.973,18.362,15.311,12.313,14.717,12.813,14.759,15.311,16.952,20.495,21.822,14.269,0.0,0.0,0.0,0,1688145443.1435,2023-06-30 19:17:23,Rest
96,0,25.093,26.187,25.286,20.666,16.409,22.89,21.558,22.843,19.224,19.224,28.335,25.141,28.335,25.141,28.698,26.686,28.698,32.175,34.775,27.51,35.86,32.175,29.64,23.059,27.51,21.509,21.916,29.64,27.693,31.745,35.633,24.501,4096.0,0.0,0.0,0,1688145443.1513,2023-06-30 19:17:23,Rest
97,0,36.339,38.456,36.02,34.477,34.323,35.162,33.32,38.189,30.476,30.476,41.627,35.362,41.627,35.362,44.039,42.541,44.039,51.099,47.036,39.778,52.218,51.099,42.418,36.356,39.778,35.32,34.702,42.418,38.936,46.058,48.917,35.235,4096.0,0.0,0.0,0,1688145443.1591,2023-06-30 19:17:23,Rest
98,0,48.598,46.102,45.205,42.64,36.338,40.25,45.069,42.762,38.13,38.13,47.221,43.523,47.221,43.523,50.143,46.085,50.143,59.757,50.575,45.373,55.752,59.757,49.036,44.004,45.373,42.969,44.913,49.036,48.631,53.697,53.479,42.372,4096.0,0.0,0.0,0,1688145443.1669,2023-06-30 19:17:23,Rest
99,0,48.037,44.519,42.598,37.986,31.691,39.185,44.0,41.694,33.481,33.481,47.686,42.968,47.686,42.968,50.605,43.989,50.605,50.476,50.524,39.692,51.085,50.476,45.401,43.96,39.692,39.34,43.332,45.401,48.583,53.643,50.351,43.866,4096.0,0.0,0.0,0,1688145443.1748,2023-06-30 19:17:23,Rest
100,0,32.108,32.691,29.236,29.752,28.585,31.462,29.099,36.017,23.202,23.202,37.392,31.654,37.392,31.654,39.283,31.65,39.283,37.105,39.203,27.357,38.739,37.105,33.06,34.182,27.357,29.567,32.017,33.06,34.19,45.393,40.055,33.064,4096.0,0.0,0.0,0,1688145443.1826,2023-06-30 19:17:23,Rest
101,0,27.977,27.535,27.157,30.234,26.508,25.282,25.483,32.395,25.74,25.74,28.645,27.524,28.645,27.524,31.047,22.397,31.047,33.994,30.455,25.793,32.04,33.994,28.416,26.976,25.793,25.951,23.276,28.416,28.008,38.687,36.429,27.908,4096.0,0.0,0.0,0,1688145443.1904,2023-06-30 19:17:23,Rest
102,0,39.22,36.729,37.376,37.376,31.092,33.966,38.266,39.535,35.448,35.448,36.301,35.693,36.301,35.693,38.188,33.133,38.188,39.596,38.109,33.452,43.791,39.596,36.072,32.072,33.452,31.561,29.913,36.072,38.738,47.358,45.614,38.126,4096.0,0.0,0.0,0,1688145443.1982,2023-06-30 19:17:23,Rest
103,0,39.693,39.767,38.876,38.876,34.647,39.568,39.764,41.545,34.388,34.388,40.876,38.731,40.876,38.731,39.175,36.686,39.175,41.605,41.657,33.931,47.334,41.605,36.549,36.651,33.931,35.115,37.568,36.549,41.773,54.483,48.13,39.625,4096.0,0.0,0.0,0,1688145443.206,2023-06-30 19:17:23,Rest
104,0,32.993,34.604,33.202,35.251,33.588,33.38,30.503,36.892,29.743,29.743,35.2,33.569,35.2,33.569,34.013,27.94,34.013,36.44,36.492,33.385,36.016,36.44,32.926,35.589,33.385,33.031,34.456,32.926,37.121,48.28,43.983,33.95,4096.0,0.0,0.0,0,1688145443.2138,2023-06-30 19:17:23,Rest
105,0,36.034,39.18,35.73,38.289,34.579,35.396,36.62,42.491,32.275,32.275,36.701,37.122,36.701,37.122,40.126,33.547,40.126,39.478,37.993,36.937,40.078,39.478,39.553,37.603,36.937,35.047,35.446,39.553,41.694,47.72,49.062,41.088,4096.0,0.0,0.0,0,1688145443.2216,2023-06-30 19:17:23,Rest
106,0,37.535,42.215,38.256,37.739,33.519,39.972,40.682,42.961,33.779,33.779,40.763,42.208,40.763,42.208,42.648,39.149,42.648,46.098,40.516,33.314,47.723,46.098,39.513,36.541,33.314,35.525,40.022,39.513,40.628,54.332,48.501,41.047,4096.0,0.0,0.0,0,1688145443.2294,2023-06-30 19:17:23,Rest
107,0,33.911,35.0,34.119,30.529,28.363,33.784,29.371,34.208,31.184,31.184,38.161,38.58,38.161,38.58,37.482,34.499,37.482,42.978,38.939,31.232,38.966,42.978,32.302,33.943,31.232,32.927,33.322,32.302,34.44,52.229,39.231,30.76,4096.0,0.0,0.0,0,1688145443.2373,2023-06-30 19:17:23,Rest
108,0,37.976,35.477,35.622,34.084,29.871,36.312,32.927,37.76,30.64,30.64,38.123,39.053,38.123,39.053,42.568,39.588,42.568,42.423,41.974,37.86,37.902,42.423,36.368,38.519,37.86,39.555,29.702,36.368,41.065,50.639,42.778,37.389,4096.0,0.0,0.0,0,1688145443.2451,2023-06-30 19:17:23,Rest
109,0,39.475,42.614,40.197,38.661,31.891,40.374,41.604,43.87,30.61,30.61,40.134,41.576,40.134,41.576,45.087,41.085,45.087,47.504,41.419,34.749,45.549,47.504,40.43,41.043,34.749,42.589,35.308,40.43,44.61,55.2,46.321,43.499,4096.0,0.0,0.0,0,1688145443.2529,2023-06-30 19:17:23,Rest
110,0,35.849,40.01,36.058,31.45,27.76,31.624,32.853,37.679,30.579,30.579,39.069,36.411,39.069,36.411,38.381,33.36,38.381,44.382,38.304,28.566,40.892,44.382,37.316,36.391,28.566,35.886,33.736,37.316,39.955,53.607,38.59,34.747,4096.0,0.0,0.0,0,1688145443.2607,2023-06-30 19:17:23,Rest
111,0,44.01,43.044,39.608,33.468,32.856,36.203,36.919,42.764,36.184,36.184,43.128,39.449,43.128,39.449,45.515,40.499,45.515,47.412,45.95,40.321,45.975,47.412,46.5,41.477,40.321,40.973,35.239,46.5,47.087,57.652,46.236,41.372,4096.0,0.0,0.0,0,1688145443.2685,2023-06-30 19:17:23,Rest
112,0,56.774,54.272,51.352,46.242,41.532,51.537,52.251,54.504,42.296,42.296,51.795,50.168,51.795,50.168,54.691,46.606,54.691,58.635,54.101,49.502,60.785,58.635,54.65,51.682,49.502,51.691,47.499,54.65,56.262,69.378,61.047,54.651,4096.0,0.0,0.0,0,1688145443.2763,2023-06-30 19:17:23,Rest
113,0,51.594,50.631,46.177,44.659,37.392,46.362,45.539,46.765,38.155,38.155,50.206,43.97,50.206,43.97,47.464,35.288,47.464,52.941,46.875,40.743,54.065,52.941,43.325,48.557,40.743,45.492,48.476,43.325,49.546,66.234,54.326,45.887,4096.0,0.0,0.0,0,1688145443.2841,2023-06-30 19:17:23,Rest
114,0,42.321,43.408,37.934,38.466,32.744,37.094,39.345,39.034,37.092,37.092,43.496,37.266,43.496,37.266,43.319,32.692,43.319,40.593,40.168,36.604,43.252,40.593,38.671,41.848,36.604,40.835,40.231,38.671,43.861,57.971,47.612,38.669,4096.0,0.0,0.0,0,1688145443.2919,2023-06-30 19:17:23,Rest
115,0,47.914,52.586,49.167,48.162,41.42,44.742,49.552,51.29,49.35,49.35,46.526,50.549,46.526,50.549,50.448,40.856,50.448,49.774,46.276,45.277,53.455,49.774,49.391,48.466,45.277,50.528,45.826,49.391,52.526,65.598,58.835,51.95,4096.0,0.0,0.0,0,1688145443.2998,2023-06-30 19:17:23,Rest
116,0,52.989,58.169,55.266,54.261,46.502,49.308,48.99,57.899,53.912,53.912,51.09,55.109,51.09,55.109,49.885,39.79,49.885,55.872,49.303,45.744,59.549,55.872,49.341,52.004,45.744,51.502,51.415,49.341,57.084,68.094,63.387,55.996,4096.0,0.0,0.0,0,1688145443.3076,2023-06-30 19:17:23,Rest
117,0,41.153,46.328,40.353,41.912,36.209,40.549,38.183,43.496,40.538,40.538,42.842,38.66,42.842,38.66,40.101,33.09,40.101,41.471,42.082,34.94,47.194,41.471,39.046,42.218,34.94,40.18,40.093,39.046,43.195,52.144,51.028,41.083,4096.0,0.0,0.0,0,1688145443.3154,2023-06-30 19:17:23,Rest
118,0,31.378,36.035,31.092,30.087,25.927,31.799,34.558,32.182,29.739,29.739,32.041,31.449,32.041,31.449,33.401,26.91,33.401,32.208,33.33,27.22,33.827,32.208,32.859,33.467,27.22,33.48,29.807,32.859,31.369,40.821,40.731,30.284,4096.0,0.0,0.0,0,1688145443.3232,2023-06-30 19:17:23,Rest
119,0,35.445,35.487,33.622,31.081,26.926,29.718,32.475,33.175,29.709,29.709,32.009,32.954,32.009,32.954,31.831,22.272,31.831,35.25,29.198,28.73,31.744,35.25,30.777,31.896,28.73,31.91,30.29,30.777,35.948,40.268,41.715,32.303,4096.0,0.0,0.0,0,1688145443.331,2023-06-30 19:17:23,Rest
120,0,33.361,33.915,30.002,31.562,25.874,29.176,29.368,30.068,26.606,26.606,31.977,25.749,31.977,25.749,31.286,21.737,31.286,31.629,27.632,27.676,30.688,31.629,28.697,27.766,27.676,25.73,26.673,28.697,33.863,32.543,37.574,31.246,4096.0,0.0,0.0,0,1688145443.3388,2023-06-30 19:17:23,Rest
121,0,20.007,25.684,20.751,23.846,16.115,21.975,22.167,19.279,17.357,17.357,20.674,15.477,20.674,15.477,22.546,15.568,22.546,21.863,20.945,14.841,21.948,21.863,22.008,19.029,14.841,19.556,14.863,22.008,17.947,21.752,26.266,21.481,4096.0,0.0,0.0,0,1688145443.3466,2023-06-30 19:17:23,Rest
122,0,16.401,20.023,15.607,16.65,11.488,14.268,12.923,12.087,8.118,8.118,13.481,10.339,13.481,10.339,14.326,5.306,14.326,18.255,13.751,7.141,14.241,18.255,14.814,14.399,7.141,19.025,7.676,14.814,15.88,19.169,22.654,14.799,4096.0,0.0,0.0,0,1688145443.3544,2023-06-30 19:17:23,Rest
123,0,24.069,22.564,17.128,18.17,15.062,19.377,18.033,14.637,5.037,5.037,20.64,9.304,20.64,9.304,20.972,7.863,20.972,22.848,17.836,16.868,19.862,22.848,18.897,18.995,16.868,22.079,14.328,18.897,25.598,23.248,28.779,18.371,4096.0,0.0,0.0,0,1688145443.3623,2023-06-30 19:17:23,Rest
124,0,25.07,25.616,20.697,23.788,17.096,26.018,24.675,20.77,10.155,10.155,25.23,13.905,25.23,13.905,25.562,16.564,25.562,25.899,22.941,19.925,25.99,25.899,25.539,24.612,19.925,23.082,20.974,25.539,26.085,25.274,29.775,21.938,4096.0,0.0,0.0,0,1688145443.3701,2023-06-30 19:17:23,Rest
125,0,17.36,20.979,17.603,21.715,12.981,19.332,15.429,17.675,10.657,10.657,17.52,14.403,17.52,14.403,16.827,13.473,16.827,18.7,14.722,6.073,16.743,18.7,17.316,16.902,6.073,17.936,11.732,17.316,18.374,20.638,23.085,18.843,4096.0,0.0,0.0,0,1688145443.3779,2023-06-30 19:17:23,Rest
126,0,11.707,14.811,9.9,12.471,7.845,11.628,8.753,9.973,6.548,6.548,11.867,9.266,11.867,9.266,12.2,8.337,12.2,12.022,9.584,-0.081,8.017,12.022,9.102,6.639,-0.081,11.258,1.986,9.102,13.233,14.47,17.939,12.676,4096.0,0.0,0.0,0,1688145443.3857,2023-06-30 19:17:23,Rest
127,0,18.868,17.87,13.989,15.533,12.96,16.739,17.966,16.623,15.763,15.763,19.028,15.404,19.028,15.404,17.31,14.476,17.31,20.719,20.333,13.239,17.743,20.719,18.314,16.367,13.239,16.37,11.718,18.314,17.318,21.115,26.118,13.688,4096.0,0.0,0.0,0,1688145443.3935,2023-06-30 19:17:23,Rest
0,0,35.243,32.196,32.418,33.448,28.829,30.555,32.293,33.513,31.628,31.628,32.841,32.295,32.841,32.295,31.125,26.757,31.125,34.53,31.583,29.62,36.68,34.53,33.153,37.867,29.62,33.259,31.686,33.153,36.768,38.513,43.51,31.093,0.0,0.0,0.0,0,1688145443.4013,2023-06-30 19:17:23,Rest
1,0,43.405,43.947,44.681,42.636,36.484,40.77,41.994,43.213,36.208,36.208,41.005,40.46,41.005,40.46,45.439,33.903,45.439,40.131,36.675,36.25,44.328,40.131,41.317,43.977,36.25,41.423,40.364,41.317,49.539,47.184,52.176,43.869,0.0,0.0,0.0,0,1688145443.4091,2023-06-30 19:17:23,Rest
2,0,42.337,45.952,43.612,39.52,34.399,42.266,43.489,43.682,37.196,37.196,44.55,40.932,44.55,40.932,46.418,36.943,46.418,43.677,42.273,38.776,46.845,43.677,43.325,39.835,38.776,36.771,40.836,43.325,46.928,45.599,53.148,40.752,0.0,0.0,0.0,0,1688145443.4169,2023-06-30 19:17:23,Rest
3,0,50.491,52.054,50.228,47.677,42.049,46.323,49.081,48.761,48.429,48.429,52.19,48.063,52.19,48.063,49.446,45.615,49.446,51.831,51.452,45.909,58.069,51.831,49.941,51.066,45.909,42.882,48.992,49.941,53.029,53.751,61.804,48.908,0.0,0.0,0.0,0,1688145443.4248,2023-06-30 19:17:23,Rest
4,0,62.736,65.834,64.523,62.486,54.815,57.547,61.328,61.52,59.14,59.14,61.36,58.773,61.36,58.773,63.741,56.328,63.741,62.025,60.623,55.085,70.819,62.025,62.187,65.871,55.085,57.696,61.238,62.187,66.296,64.455,72.501,67.302,0.0,0.0,0.0,0,1688145443.4326,2023-06-30 19:17:23,Rest
5,0,62.161,66.281,62.409,60.375,53.735,59.026,61.266,64.533,58.056,58.056,60.786,59.227,60.786,59.227,62.652,56.784,62.652,62.987,62.099,56.567,68.699,62.987,62.124,62.219,56.567,58.151,61.177,62.124,65.205,60.293,69.354,65.698,0.0,0.0,0.0,0,1688145443.4404,2023-06-30 19:17:23,Rest
6,0,55.951,53.919,50.563,51.093,44.972,49.746,51.471,54.222,50.313,50.313,53.553,50.971,53.553,50.971,51.831,50.067,51.831,51.654,51.791,45.751,55.822,51.654,48.23,53.448,45.751,46.822,48.308,48.23,56.431,52.035,55.453,54.874,0.0,0.0,0.0,0,1688145443.4482,2023-06-30 19:17:23,Rest
7,0,47.698,47.718,45.39,45.918,37.243,42.524,46.297,46.483,43.603,43.603,47.352,43.748,47.352,43.748,48.706,46.431,48.706,40.331,40.468,32.386,45.008,40.331,41.01,46.222,32.386,39.602,36.989,41.01,48.177,46.86,46.176,50.72,0.0,0.0,0.0,0,1688145443.456,2023-06-30 19:17:23,Rest
8,0,38.941,44.084,37.66,37.163,30.033,38.383,38.566,40.801,34.85,34.85,40.132,37.556,40.132,37.556,39.435,40.749,39.435,37.217,35.817,27.23,40.865,37.217,38.407,36.442,27.23,34.952,32.341,38.407,38.395,37.08,44.08,40.424,0.0,0.0,0.0,0,1688145443.4638,2023-06-30 19:17:23,Rest
9,0,39.927,36.867,31.474,30.978,29.491,34.246,34.429,33.076,25.594,25.594,35.993,30.859,35.993,30.859,33.248,30.974,33.248,35.643,34.756,30.277,39.799,35.643,33.758,34.869,30.277,33.38,32.309,33.758,38.357,33.456,41.987,33.723,0.0,0.0,0.0,0,1688145443.4716,2023-06-30 19:17:23,Rest
10,0,41.936,36.831,37.078,34.021,30.486,34.212,38.493,30.994,24.543,24.543,39.031,28.266,39.031,28.266,41.924,26.845,41.924,35.607,34.209,31.271,38.735,35.607,34.749,39.445,31.271,38.47,34.326,34.749,43.442,41.107,39.896,39.325,0.0,0.0,0.0,0,1688145443.4794,2023-06-30 19:17:23,Rest
11,0,36.771,39.355,37.041,33.987,26.357,33.153,37.942,30.963,26.568,26.568,39.505,28.238,39.505,28.238,39.833,27.33,39.833,38.133,34.175,28.166,37.671,38.133,37.788,36.844,28.166,36.382,34.804,37.788,40.837,41.066,42.93,37.749,0.0,0.0,0.0,0,1688145443.4873,2023-06-30 19:17:23,Rest
12,0,37.247,36.242,30.856,31.904,27.355,32.095,34.318,29.907,25.517,25.517,35.367,29.234,35.367,29.234,33.133,27.303,33.133,37.583,36.19,28.65,40.195,37.583,35.188,37.319,28.65,30.198,30.671,35.188,38.234,36.415,44.936,32.075,0.0,0.0,0.0,0,1688145443.4951,2023-06-30 19:17:23,Rest
13,0,35.16,34.669,33.387,33.921,29.889,32.063,33.771,30.389,24.467,24.467,33.794,27.156,33.794,27.156,36.686,27.788,36.686,31.91,34.617,28.622,37.594,31.91,31.567,34.72,28.622,26.582,26.029,31.567,36.659,33.304,40.28,34.093,0.0,0.0,0.0,0,1688145443.5029,2023-06-30 19:17:23,Rest
14,0,18.219,25.413,26.181,23.129,18.076,23.322,22.979,20.113,17.782,17.782,24.539,15.858,24.539,15.858,24.866,18.539,24.866,23.681,21.262,17.322,20.65,23.681,19.752,18.292,17.322,15.284,19.343,19.752,23.815,20.976,27.432,23.812,0.0,0.0,0.0,0,1688145443.5107,2023-06-30 19:17:23,Rest
15,0,8.467,6.432,8.737,8.249,6.788,12.028,7.074,5.236,4.444,4.444,9.145,4.059,9.145,4.059,6.911,4.176,6.911,11.874,5.872,4.497,4.235,11.874,4.876,8.54,4.497,0.412,8.053,4.876,9.959,9.684,14.597,6.882,0.0,0.0,0.0,0,1688145443.5185,2023-06-30 19:17:23,Rest
16,0,12.557,5.401,9.24,13.364,12.416,12.016,9.629,11.378,4.44,4.44,9.136,5.079,9.136,5.079,11.515,2.635,11.515,6.739,6.378,3.98,7.305,6.739,7.945,11.605,3.98,3.486,2.922,7.945,10.973,13.773,14.583,10.974,0.0,0.0,0.0,0,1688145443.5263,2023-06-30 19:17:23,Rest
17,0,16.131,20.252,19.99,25.133,17.014,17.639,20.89,23.15,15.706,15.706,19.373,12.759,19.373,12.759,16.114,8.78,16.114,13.905,14.569,12.173,20.105,13.905,18.695,14.667,12.173,14.241,10.603,18.695,18.135,23.493,25.327,23.258,0.0,0.0,0.0,0,1688145443.5341,2023-06-30 19:17:23,Rest
18,0,21.238,22.794,21.506,25.621,16.997,20.183,21.381,19.028,16.715,16.715,19.866,15.82,19.866,15.82,14.561,9.795,14.561,20.551,16.604,15.235,22.647,20.551,18.164,19.263,15.235,17.813,19.302,18.164,22.215,28.592,27.863,23.235,0.0,0.0,0.0,0,1688145443.5419,2023-06-30 19:17:23,Rest
19,0,24.802,19.697,21.997,22.521,18.517,22.212,20.848,16.96,11.575,11.575,17.797,16.829,17.797,16.829,21.719,11.835,21.719,19.506,15.562,12.658,20.063,19.506,17.634,22.318,12.658,20.869,17.746,17.634,24.754,28.564,24.761,23.212,0.0,0.0,0.0,0,1688145443.5498,2023-06-30 19:17:23,Rest
20,0,21.704,22.239,23.0,20.449,16.962,21.165,24.413,20.529,11.564,11.564,22.39,16.3,22.39,16.3,23.234,15.409,23.234,16.925,17.596,12.133,22.092,16.925,20.178,19.222,12.133,20.335,15.167,20.178,25.242,24.949,26.786,25.75,0.0,0.0,0.0,0,1688145443.5576,2023-06-30 19:17:23,Rest
21,0,22.194,23.241,21.952,20.941,15.92,20.632,25.926,18.46,14.626,14.626,25.441,14.234,25.441,14.234,21.674,18.468,21.674,19.469,20.14,16.22,25.144,19.469,20.67,21.252,16.22,19.29,18.738,20.67,24.704,24.412,28.808,25.212,0.0,0.0,0.0,0,1688145443.5654,2023-06-30 19:17:23,Rest
22,0,29.857,27.316,26.541,26.556,21.54,26.759,28.973,20.49,20.247,20.247,29.514,18.318,29.514,18.318,31.386,24.597,31.386,26.622,24.731,20.302,27.168,26.622,24.748,26.353,20.302,23.882,25.379,24.748,28.266,27.973,32.365,29.285,0.0,0.0,0.0,0,1688145443.5732,2023-06-30 19:17:23,Rest
23,0,31.876,30.875,29.588,26.529,22.031,29.806,29.969,26.105,22.788,22.788,31.022,23.936,31.022,23.936,32.891,29.183,32.891,29.669,29.317,22.331,31.751,29.669,28.309,26.839,22.331,23.346,25.353,28.309,31.311,28.458,36.431,30.793,0.0,0.0,0.0,0,1688145443.581,2023-06-30 19:17:23,Rest
24,0,26.721,23.672,25.46,21.892,17.91,23.628,23.791,21.981,18.155,18.155,26.892,21.862,26.892,21.862,24.149,24.543,24.149,27.078,26.213,21.796,28.646,27.078,23.67,26.3,21.796,17.687,18.156,23.67,28.206,22.282,31.272,20.516,0.0,0.0,0.0,0,1688145443.5888,2023-06-30 19:17:23,Rest
25,0,21.059,16.988,20.824,21.87,17.892,20.018,20.694,15.811,16.6,16.6,22.767,16.717,22.767,16.717,22.076,17.859,22.076,21.416,17.478,17.164,18.883,21.416,16.986,21.151,17.164,16.132,13.527,16.986,22.542,15.599,24.068,15.372,0.0,0.0,0.0,0,1688145443.5966,2023-06-30 19:17:23,Rest
26,0,11.817,12.361,11.582,16.213,11.214,15.388,17.087,12.209,15.558,15.558,15.06,10.041,15.06,10.041,14.369,11.181,14.369,8.074,7.727,5.363,7.593,8.074,8.26,8.834,5.363,6.895,7.878,8.26,13.298,7.899,17.897,13.82,0.0,0.0,0.0,0,1688145443.6044,2023-06-30 19:17:23,Rest
27,0,-8.175,-5.582,-8.922,-3.271,-4.166,-3.071,-2.91,-2.148,-1.363,-1.363,-7.497,-5.339,-7.497,-5.339,-9.211,-0.614,-9.211,-12.426,-13.286,-18.208,-14.443,-12.426,-14.29,-9.618,-18.208,-15.654,-16.721,-14.29,-8.232,-12.601,-7.224,-7.198,0.0,0.0,0.0,0,1688145443.6123,2023-06-30 19:17:23,Rest
28,0,-25.073,-24.02,-23.77,-17.1,-12.871,-17.412,-18.276,-15.978,-15.707,-15.707,-23.883,-15.579,-23.883,-15.579,-23.547,-6.761,-23.547,-23.172,-29.666,-36.633,-33.897,-23.172,-31.694,-24.977,-36.633,-27.933,-40.27,-31.694,-25.642,-33.593,-27.709,-26.659,0.0,0.0,0.0,0,1688145443.6201,2023-06-30 19:17:23,Rest
29,0,-11.728,-13.237,-11.963,-7.349,-4.661,-5.612,-4.938,-6.228,-5.957,-5.957,-10.027,-5.318,-10.027,-5.318,-10.203,3.492,-10.203,-11.366,-13.243,-19.178,-17.981,-11.366,-15.268,-15.731,-19.178,-13.049,-22.299,-15.268,-10.247,-17.166,-6.165,-13.824,0.0,0.0,0.0,0,1688145443.6279,2023-06-30 19:17:23,Rest
30,0,16.461,14.953,11.615,11.101,11.225,15.398,16.584,11.197,6.857,6.857,14.061,6.471,14.061,6.471,13.885,13.223,13.885,9.65,13.411,12.604,14.825,9.65,14.973,12.462,12.604,11.555,10.511,14.973,20.501,15.639,24.58,11.292,0.0,554172416.0,0.0,0,1688145443.6357,2023-06-30 19:17:23,Rest
31,0,15.932,18.524,15.702,15.189,11.726,18.457,18.104,9.648,3.264,3.264,17.121,3.903,17.121,3.903,17.97,8.086,17.97,13.227,11.348,12.079,15.322,13.227,15.983,15.523,12.079,14.105,12.55,15.983,22.53,14.087,23.018,14.867,0.0,0.0,0.0,0,1688145443.6435,2023-06-30 19:17:23,Rest
32,0,3.108,5.185,4.928,8.513,3.517,10.754,9.889,4.003,-0.838,-0.838,9.419,1.85,9.419,1.85,8.218,5.004,8.218,4.504,1.603,-2.79,3.011,4.504,1.622,3.725,-2.79,3.333,-4.369,1.622,6.626,-4.883,12.749,7.68,4096.0,0.0,0.0,0,1688145443.6513,2023-06-30 19:17:23,Rest
33,0,12.327,11.328,11.07,10.042,11.711,12.792,13.465,12.196,3.261,3.261,15.045,9.532,15.045,9.532,12.308,14.221,12.308,12.697,11.335,7.459,14.791,12.697,10.842,13.455,7.459,7.428,4.345,10.842,14.816,3.319,19.909,10.746,4096.0,0.0,0.0,0,1688145443.6591,2023-06-30 19:17:23,Rest
34,0,20.511,23.1,21.305,16.692,19.896,19.952,20.624,15.77,4.283,4.283,22.203,10.035,22.203,10.035,20.493,16.256,20.493,25.492,19.008,21.796,23.486,25.492,23.639,21.126,21.796,16.642,15.611,23.639,26.072,14.586,26.549,15.859,4096.0,0.0,0.0,0,1688145443.6669,2023-06-30 19:17:23,Rest
35,0,13.831,15.904,13.599,13.601,10.142,16.346,17.017,6.533,2.741,2.741,17.057,3.877,17.057,3.877,14.837,8.555,14.837,15.22,11.305,12.553,12.704,15.22,13.369,9.322,12.553,12.015,5.349,13.369,17.337,4.326,21.399,12.769,4096.0,0.0,0.0,0,1688145443.6748,2023-06-30 19:17:23,Rest
36,0,17.915,16.401,13.074,12.563,11.669,15.305,17.513,11.137,9.399,9.399,19.602,9.509,19.602,9.509,16.359,10.596,16.359,12.643,13.343,9.979,15.765,12.643,10.794,12.386,9.979,13.027,3.807,10.794,17.832,2.784,23.939,15.83,4096.0,0.0,0.0,0,1688145443.6826,2023-06-30 19:17:23,Rest
37,0,30.193,31.241,28.43,27.407,28.051,28.097,29.278,28.545,18.611,18.611,31.365,22.307,31.365,22.307,29.663,22.368,29.663,29.537,26.137,24.826,31.118,29.537,25.64,29.28,24.826,25.309,19.685,25.64,33.183,17.126,37.235,30.671,4096.0,0.0,0.0,0,1688145443.6904,2023-06-30 19:17:23,Rest
38,0,28.626,32.235,31.475,34.04,29.048,34.217,32.323,29.541,19.104,19.104,31.334,23.822,31.334,23.822,29.633,24.907,29.633,28.995,27.135,25.826,29.55,28.995,26.639,28.226,25.826,24.772,21.714,26.639,33.15,20.183,41.297,34.739,4096.0,0.0,0.0,0,1688145443.6982,2023-06-30 19:17:23,Rest
39,0,27.06,28.616,25.808,26.321,23.383,28.547,27.68,21.826,16.524,16.524,28.741,18.675,28.741,18.675,23.968,20.272,23.968,21.281,22.497,18.628,25.422,21.281,22.002,23.075,18.628,21.161,17.594,22.002,27.482,15.04,37.157,27.02,4096.0,0.0,0.0,0,1688145443.706,2023-06-30 19:17:23,Rest
40,0,36.767,35.76,32.955,30.393,31.044,31.592,33.8,28.977,21.63,21.63,37.421,24.292,37.421,24.292,33.678,23.838,33.678,35.605,30.16,30.904,36.668,35.605,34.788,33.298,30.904,33.947,27.31,34.788,38.213,21.172,46.341,30.579,4096.0,0.0,0.0,0,1688145443.7138,2023-06-30 19:17:23,Rest
41,0,43.39,40.847,42.656,41.634,36.649,40.782,43.5,40.731,30.83,30.83,44.044,34.001,44.044,34.001,45.94,33.035,45.94,46.327,39.863,45.218,48.414,46.327,46.024,42.486,45.218,43.135,39.066,46.024,48.421,34.471,59.103,42.331,4096.0,0.0,0.0,0,1688145443.7216,2023-06-30 19:17:23,Rest
42,0,43.859,42.856,45.175,42.104,36.612,43.815,45.505,42.739,34.386,34.386,45.025,38.578,45.025,38.578,45.382,37.613,45.382,44.232,42.385,44.148,52.977,44.232,46.49,43.468,44.148,40.53,42.613,46.49,47.86,40.072,60.58,44.85,4096.0,0.0,0.0,0,1688145443.7294,2023-06-30 19:17:23,Rest
43,0,43.303,47.423,47.691,42.062,41.186,44.284,46.485,43.721,34.863,34.863,46.517,38.539,46.517,38.539,42.262,36.038,42.262,47.262,43.88,42.567,53.948,47.262,47.468,44.45,42.567,43.051,42.058,47.468,47.812,36.958,58.983,43.269,4096.0,0.0,0.0,0,1688145443.7373,2023-06-30 19:17:23,Rest
44,0,40.698,41.228,42.008,39.971,38.071,40.653,42.34,39.067,29.193,29.193,41.347,30.816,41.347,30.816,41.195,31.392,41.195,41.067,37.688,39.963,46.21,41.067,41.273,38.77,39.963,41.471,36.381,41.273,46.227,28.724,55.338,38.102,4096.0,0.0,0.0,0,1688145443.7451,2023-06-30 19:17:23,Rest
45,0,32.973,26.33,29.158,28.148,24.201,29.854,29.49,24.683,18.918,18.918,31.059,21.051,31.059,21.051,32.445,25.725,32.445,27.706,25.355,29.165,33.356,27.706,28.424,27.972,29.165,28.622,28.147,28.424,36.447,18.962,43.499,26.793,4096.0,0.0,0.0,0,1688145443.7529,2023-06-30 19:17:23,Rest
46,0,28.329,26.816,27.08,25.558,21.615,26.751,27.923,23.634,21.461,21.461,32.565,22.567,32.565,22.567,28.314,25.699,28.314,29.727,24.305,25.549,28.712,29.727,27.371,26.92,25.549,25.007,23.509,27.371,31.8,15.357,37.82,26.767,4096.0,0.0,0.0,0,1688145443.7607,2023-06-30 19:17:23,Rest
47,0,36.498,40.109,37.299,36.804,33.377,33.896,39.166,36.418,33.222,33.222,42.267,30.229,42.267,30.229,36.995,32.333,36.995,37.894,32.99,31.672,36.88,37.894,34.516,35.602,31.672,35.229,25.022,34.516,39.453,22.001,44.955,38.011,4096.0,0.0,0.0,0,1688145443.7685,2023-06-30 19:17:23,Rest
48,0,47.22,46.217,42.385,41.89,41.028,39.498,43.225,39.968,34.214,34.214,44.274,32.248,44.274,32.248,44.643,37.936,44.643,42.979,37.568,37.275,47.089,42.979,40.117,42.739,37.275,43.39,33.706,40.117,48.635,29.664,50.545,43.096,4096.0,0.0,0.0,0,1688145443.7763,2023-06-30 19:17:23,Rest
49,0,45.635,43.097,40.293,38.774,40.474,39.97,39.596,36.342,28.544,28.544,41.155,29.142,41.155,29.142,42.549,32.775,42.549,43.449,37.53,37.238,44.993,43.449,40.076,41.159,37.238,43.347,37.259,40.076,45.512,27.073,48.446,41.516,4096.0,0.0,0.0,0,1688145443.7841,2023-06-30 19:17:23,Rest
50,0,36.368,36.906,34.105,35.661,33.262,34.807,34.433,33.231,24.417,24.417,37.528,26.039,37.528,26.039,35.846,23.521,35.846,32.647,30.832,28.491,35.214,32.647,31.839,35.483,28.491,37.668,25.951,31.839,38.295,18.849,41.737,36.863,4096.0,0.0,0.0,0,1688145443.7919,2023-06-30 19:17:23,Rest
51,0,35.307,33.283,30.997,32.04,26.568,29.137,32.35,27.563,20.806,20.806,32.88,24.989,32.88,24.989,32.224,24.01,32.224,28.516,27.728,26.414,34.666,28.516,30.271,32.886,26.414,33.02,22.851,30.271,38.769,17.293,39.134,30.679,4096.0,0.0,0.0,0,1688145443.7998,2023-06-30 19:17:23,Rest
52,0,41.932,37.86,36.601,33.545,29.103,35.768,37.44,27.535,20.786,20.786,35.921,27.013,35.921,27.013,37.315,29.621,37.315,39.246,34.36,34.584,40.267,39.246,40.999,35.927,34.584,38.622,35.636,40.999,41.804,22.911,45.242,35.259,4096.0,0.0,0.0,0,1688145443.8076,2023-06-30 19:17:23,Rest
53,0,34.718,35.261,32.979,31.462,29.074,34.195,32.792,26.483,17.179,17.179,34.348,19.814,34.348,19.814,33.692,18.833,33.692,33.059,28.178,27.89,31.005,33.059,33.786,32.305,27.89,34.997,28.428,33.786,32.028,15.203,39.05,34.199,4096.0,0.0,0.0,0,1688145443.8154,2023-06-30 19:17:23,Rest
54,0,11.629,14.734,10.916,15.036,15.725,12.132,13.292,11.087,1.28,1.28,15.871,2.888,15.871,2.888,13.678,-4.239,13.678,9.46,5.608,7.369,9.97,9.46,9.673,15.366,7.369,11.396,2.784,9.673,15.09,-4.279,19.03,12.648,4096.0,0.0,0.0,0,1688145443.8232,2023-06-30 19:17:23,Rest
55,0,1.371,2.423,1.172,4.775,6.488,3.411,5.594,-0.707,-7.431,-7.431,4.072,-4.8,4.072,-4.8,2.906,-12.432,2.906,1.253,-3.107,-0.835,-1.311,1.253,1.467,2.031,-0.835,-0.398,-4.391,1.467,6.366,-11.96,12.351,-0.685,4096.0,0.0,0.0,0,1688145443.831,2023-06-30 19:17:23,Rest
56,0,0.858,2.421,2.195,5.795,4.432,6.993,4.051,-1.731,-6.911,-6.911,1.506,-7.357,1.506,-7.357,1.878,-11.907,1.878,-3.359,-5.665,-3.908,-7.97,-3.359,-2.633,-2.07,-3.908,-0.398,-3.362,-2.633,-0.301,-16.559,6.704,-0.172,4096.0,0.0,0.0,0,1688145443.8388,2023-06-30 19:17:23,Rest
57,0,-13.488,-10.389,-11.127,-3.945,-4.794,-6.846,-10.297,-13.0,-18.175,-18.175,-12.328,-18.62,-12.328,-18.62,-11.444,-19.068,-11.444,-16.676,-21.029,-17.736,-18.72,-16.676,-19.024,-12.826,-17.736,-13.717,-19.24,-19.024,-12.084,-31.911,-10.721,-11.955,3968.0,0.0,0.0,0,1688145443.8466,2023-06-30 19:17:23,Rest
58,0,-18.085,-16.014,-16.239,-12.138,-6.838,-12.987,-11.824,-17.598,-23.792,-23.792,-16.926,-19.626,-16.926,-19.626,-17.068,-16.487,-17.068,-14.097,-22.032,-20.792,-19.214,-14.097,-18.493,-18.449,-20.792,-19.339,-24.344,-18.493,-14.121,-32.904,-6.1,-20.14,3968.0,0.0,0.0,0,1688145443.8544,2023-06-30 19:17:23,Rest
59,0,-1.161,0.908,-2.39,0.17,3.927,2.908,2.02,-3.748,-11.985,-11.985,-1.54,-5.262,-1.54,-5.262,-4.243,-3.151,-4.243,-1.788,-6.641,-8.476,-6.387,-1.788,-3.618,-4.598,-8.476,-5.488,-7.414,-3.618,-3.86,-16.989,10.3,-4.75,4096.0,0.0,0.0,0,1688145443.8623,2023-06-30 19:17:23,Rest
60,0,3.451,8.079,0.173,10.416,8.022,7.516,4.58,1.379,-3.776,-3.776,2.048,-1.158,2.048,-1.158,0.885,-4.684,0.885,-2.298,-4.585,-4.882,0.792,-2.298,-2.077,4.628,-4.882,-0.359,-0.234,-2.077,4.34,-12.874,7.728,6.525,4096.0,0.0,0.0,0,1688145443.8701,2023-06-30 19:17:23,Rest
61,0,0.374,3.461,0.686,9.381,6.989,3.922,5.6,1.89,-1.723,-1.723,0.509,-2.182,0.509,-2.182,1.908,-6.217,1.908,-0.247,-4.068,-6.414,-0.234,-0.247,-2.587,2.574,-6.414,-0.871,-5.869,-2.587,5.873,-14.398,7.208,3.445,4096.0,0.0,0.0,0,1688145443.8779,2023-06-30 19:17:23,Rest
62,0,6.521,9.092,9.906,13.47,12.105,9.553,11.742,10.085,5.451,5.451,9.217,4.481,9.217,4.481,9.079,4.036,9.079,5.389,0.547,-2.309,-1.258,5.389,3.051,4.621,-2.309,5.278,-5.863,3.051,5.355,-12.334,10.787,6.003,4096.0,0.0,0.0,0,1688145443.8857,2023-06-30 19:17:23,Rest
63,0,1.904,6.01,1.7,11.407,9.019,4.421,4.045,5.464,1.347,1.347,3.573,0.378,3.573,0.378,0.873,-1.091,0.873,-2.813,-8.675,-5.38,-6.38,-2.813,-4.637,1.03,-5.38,0.662,-10.98,-4.637,-0.798,-21.544,-2.544,5.485,4096.0,0.0,0.0,0,1688145443.8935,2023-06-30 19:17:23,Rest
64,0,-8.344,-6.292,-10.597,-1.412,-1.748,-4.293,-4.156,-7.861,-14.536,-14.536,-7.189,-10.893,-7.189,-10.893,-10.399,-15.947,-10.399,-10.495,-14.814,-13.059,-12.009,-10.495,-11.805,-7.68,-13.059,-7.536,-17.117,-11.805,-5.921,-27.158,-8.689,-3.742,0.0,0.0,0.0,0,1688145443.9013,2023-06-30 19:17:23,Rest
65,0,-3.213,-2.187,-1.365,0.639,-0.21,3.396,0.972,-5.804,-15.546,-15.546,1.015,-9.858,1.015,-9.858,-2.704,-13.882,-2.704,-3.825,-6.603,-6.899,-8.923,-3.825,-3.084,-2.037,-6.899,0.668,-5.829,-3.084,0.233,-16.884,5.664,-2.714,0.0,0.0,0.0,0,1688145443.9091,2023-06-30 19:17:23,Rest
66,0,0.377,3.963,3.247,9.347,4.401,6.979,3.532,-0.163,-8.87,-8.87,4.6,-9.848,4.6,-9.848,1.91,-10.794,1.91,-1.772,-7.621,-1.256,-3.791,-1.772,-0.519,3.088,-1.256,7.84,1.861,-0.519,4.844,-11.744,9.245,5.486,0.0,0.0,0.0,0,1688145443.9169,2023-06-30 19:17:23,Rest
67,0,-4.747,-0.652,-3.416,3.703,1.323,-0.201,1.992,-3.237,-12.448,-12.448,-5.139,-14.449,-5.139,-14.449,-5.265,-15.907,-5.265,-6.381,-12.736,-5.354,-4.812,-6.381,-4.617,-4.087,-5.354,2.709,-4.801,-4.617,-0.797,-13.782,5.137,4.456,0.0,0.0,0.0,0,1688145443.9248,2023-06-30 19:17:23,Rest
68,0,-5.767,-0.139,1.198,1.137,3.371,1.849,3.014,-3.746,-17.558,-17.558,-4.621,-10.848,-4.621,-10.848,-5.259,-16.403,-5.259,-4.325,-6.063,-3.811,-3.27,-4.325,-0.002,-3.059,-3.811,0.657,-1.722,-0.002,-3.87,-10.694,10.767,1.377,0.0,0.0,0.0,0,1688145443.9326,2023-06-30 19:17:23,Rest
69,0,-4.736,2.423,3.758,7.796,6.441,5.946,2.499,-2.205,-14.467,-14.467,-1.543,-8.276,-1.543,-8.276,-2.693,-13.825,-2.693,-2.272,-5.545,1.828,-2.242,-2.272,2.56,3.604,1.828,4.243,4.94,2.56,1.257,-11.196,13.318,3.425,0.0,0.0,0.0,0,1688145443.9404,2023-06-30 19:17:23,Rest
70,0,-3.707,-0.141,-2.393,6.252,-1.762,1.329,4.033,-3.74,-12.916,-12.916,-3.59,-13.903,-3.59,-13.903,-3.715,-13.299,-3.715,-4.319,-11.175,-1.248,-8.388,-4.319,-1.541,-0.498,-1.248,6.8,-2.238,-1.541,2.281,-12.721,9.206,2.397,0.0,0.0,0.0,0,1688145443.9482,2023-06-30 19:17:23,Rest
71,0,-2.679,0.371,-1.366,0.098,-5.346,-0.722,3.005,-6.297,-15.977,-15.977,-2.05,-13.889,-2.05,-13.889,-3.199,-12.261,-3.199,-6.363,-9.627,-5.857,-10.428,-6.363,-2.052,-4.596,-5.857,5.256,-5.822,-2.052,-2.845,-12.709,5.611,-1.192,0.0,0.0,0.0,0,1688145443.956,2023-06-30 19:17:23,Rest
72,0,-10.361,-4.752,-3.927,-2.464,-1.242,-2.77,-6.732,-11.414,-20.059,-20.059,-4.609,-14.9,-4.609,-14.9,-7.294,-14.298,-7.294,-10.456,-13.203,-9.438,-12.467,-10.456,-6.148,-7.152,-9.438,-1.921,-6.328,-6.148,-8.99,-19.868,-2.591,-5.289,0.0,0.0,0.0,0,1688145443.9638,2023-06-30 19:17:23,Rest
73,0,-18.035,-15.506,-16.218,-8.609,-7.389,-8.403,-10.311,-16.014,-24.137,-24.137,-14.339,-22.057,-14.339,-22.057,-14.971,-15.308,-14.971,-15.056,-21.387,-17.625,-21.164,-15.056,-16.901,-16.367,-17.625,-10.629,-18.105,-16.901,-15.128,-29.07,-10.273,-12.456,0.0,0.0,0.0,0,1688145443.9716,2023-06-30 19:17:23,Rest
74,0,-17.505,-17.027,-21.837,-14.236,-16.091,-11.468,-11.838,-18.047,-26.675,-26.675,-18.423,-25.621,-18.423,-25.621,-18.03,-15.805,-18.03,-18.627,-24.439,-23.243,-27.291,-18.627,-23.544,-22.498,-23.243,-16.253,-27.82,-23.544,-19.724,-34.164,-13.337,-18.591,0.0,0.0,0.0,0,1688145443.9794,2023-06-30 19:17:23,Rest
75,0,-30.295,-25.207,-27.963,-20.882,-20.685,-21.191,-25.146,-27.25,-34.845,-34.845,-26.089,-32.256,-26.089,-32.256,-28.258,-26.548,-28.258,-30.904,-36.71,-33.978,-37.509,-30.904,-33.766,-29.648,-33.978,-24.434,-35.99,-33.766,-27.901,-46.425,-28.181,-26.257,0.0,0.0,0.0,0,1688145443.9873,2023-06-30 19:17:23,Rest
76,0,-52.806,-47.724,-47.403,-37.255,-33.472,-38.588,-38.441,-46.691,-49.667,-49.667,-43.994,-49.13,-43.994,-49.13,-46.161,-43.94,-46.161,-50.341,-55.629,-56.486,-60.013,-50.341,-51.663,-48.061,-56.486,-39.266,-54.909,-51.663,-46.316,-63.797,-50.694,-44.162,0.0,0.0,0.0,0,1688145443.9951,2023-06-30 19:17:23,Rest
77,0,-55.315,-53.824,-56.065,-44.902,-41.124,-44.185,-41.989,-54.329,-57.302,-57.302,-51.634,-58.814,-51.634,-58.814,-53.287,-53.63,-53.287,-55.926,-57.623,-60.528,-67.638,-55.926,-57.247,-55.698,-60.528,-47.936,-63.563,-57.247,-56.516,-68.344,-53.205,-53.339,0.0,0.0,0.0,0,1688145444.0029,2023-06-30 19:17:24,Rest
78,0,-42.964,-39.937,-42.689,-35.123,-31.861,-35.431,-41.434,-42.491,-52.634,-52.634,-42.361,-52.096,-42.361,-52.096,-45.549,-51.015,-45.549,-42.55,-48.856,-40.999,-52.201,-42.55,-44.894,-42.322,-40.999,-38.155,-50.18,-44.894,-44.677,-57.517,-40.856,-42.015,0.0,0.0,0.0,0,1688145444.0107,2023-06-30 19:17:24,Rest
79,0,-38.31,-35.287,-33.424,-27.404,-24.657,-29.761,-33.196,-36.301,-48.483,-48.483,-34.122,-44.871,-34.122,-44.871,-38.331,-43.791,-38.331,-32.261,-46.245,-32.762,-44.464,-32.261,-36.653,-34.595,-32.762,-27.358,-41.933,-36.653,-33.873,-47.214,-35.692,-33.264,0.0,0.0,0.0,0,1688145444.0185,2023-06-30 19:17:24,Rest
80,0,-34.686,-36.788,-32.879,-24.302,-24.632,-28.194,-24.454,-38.314,-44.336,-44.336,-32.551,-42.265,-32.551,-42.265,-33.682,-38.112,-33.682,-32.741,-39.539,-34.778,-42.883,-32.741,-35.591,-36.098,-34.778,-28.355,-42.403,-35.591,-33.327,-46.654,-32.583,-33.743,0.0,0.0,0.0,0,1688145444.0263,2023-06-30 19:17:24,Rest
81,0,-28.503,-29.067,-28.235,-19.667,-18.972,-24.579,-25.454,-31.616,-35.07,-35.07,-29.444,-37.612,-29.444,-37.612,-29.037,-38.074,-29.037,-31.171,-32.84,-27.571,-35.668,-31.171,-31.457,-30.426,-27.571,-27.815,-37.238,-31.457,-30.22,-46.608,-24.866,-28.586,0.0,0.0,0.0,0,1688145444.0341,2023-06-30 19:17:24,Rest
82,0,-33.598,-29.55,-29.231,-23.234,-20.49,-26.092,-29.527,-31.072,-36.572,-36.572,-30.952,-40.136,-30.952,-40.136,-32.082,-42.647,-32.082,-31.14,-38.954,-29.08,-39.731,-31.14,-32.963,-31.42,-29.08,-26.25,-36.688,-32.963,-30.702,-45.024,-27.915,-29.07,0.0,0.0,0.0,0,1688145444.0419,2023-06-30 19:17:24,Rest
83,0,-38.688,-37.718,-36.374,-30.383,-27.13,-29.652,-30.01,-40.262,-45.757,-45.757,-36.044,-47.78,-36.044,-47.78,-38.198,-45.166,-38.198,-36.232,-41.989,-36.736,-47.375,-36.232,-38.565,-41.123,-36.736,-30.834,-41.774,-38.565,-35.795,-44.979,-34.547,-37.237,0.0,0.0,0.0,0,1688145444.0498,2023-06-30 19:17:24,Rest
84,0,-28.915,-28.458,-28.653,-22.668,-18.905,-21.938,-24.344,-30.488,-38.539,-38.539,-28.835,-39.535,-28.835,-39.535,-28.938,-36.924,-28.938,-29.024,-31.189,-27.478,-35.545,-29.024,-30.842,-31.348,-27.478,-23.119,-33.536,-30.842,-27.562,-33.663,-23.754,-30.028,0.0,0.0,0.0,0,1688145444.0576,2023-06-30 19:17:24,Rest
85,0,-20.177,-15.622,-16.842,-12.911,-7.104,-11.67,-14.586,-17.138,-25.18,-25.18,-18.561,-24.639,-18.561,-24.639,-16.614,-23.567,-16.614,-18.236,-23.473,-18.228,-24.239,-18.236,-22.102,-15.435,-18.228,-10.288,-23.768,-22.102,-15.751,-19.285,-12.971,-16.166,0.0,0.0,0.0,0,1688145444.0654,2023-06-30 19:17:24,Rest
86,0,-24.767,-19.705,-19.899,-14.948,-10.17,-14.732,-16.108,-22.756,-26.692,-26.692,-21.103,-25.639,-21.103,-25.639,-22.233,-16.371,-22.233,-21.804,-24.987,-24.87,-28.313,-21.804,-25.154,-20.543,-24.87,-15.401,-25.794,-25.154,-20.346,-22.34,-19.618,-16.662,0.0,0.0,0.0,0,1688145444.0732,2023-06-30 19:17:24,Rest
87,0,-22.693,-18.661,-18.342,-11.347,-9.648,-15.229,-17.117,-19.659,-24.104,-24.104,-20.058,-25.613,-20.058,-25.613,-21.698,-12.768,-21.698,-17.171,-19.838,-21.772,-23.674,-17.171,-19.493,-21.547,-21.772,-14.361,-24.231,-19.493,-20.326,-19.756,-18.062,-15.62,0.0,0.0,0.0,0,1688145444.081,2023-06-30 19:17:24,Rest
88,0,-8.838,-5.834,-6.54,-1.089,-0.417,-3.943,-4.292,-4.783,-13.834,-13.834,-7.742,-14.829,-7.742,-14.829,-5.795,-7.632,-5.795,-1.273,-9.06,-7.405,-10.842,-1.273,-7.178,-7.693,-7.405,1.535,-16.522,-7.178,-6.986,0.244,-4.724,-6.383,0.0,0.0,0.0,0,1688145444.0888,2023-06-30 19:17:24,Rest
89,0,-4.219,-4.292,-4.997,-0.576,1.121,0.671,-1.214,-7.339,-14.844,-14.844,-3.124,-11.741,-3.124,-11.741,-3.227,-6.088,-3.227,1.29,-4.44,-3.812,-6.733,1.29,-7.171,-4.099,-3.812,2.558,-13.944,-7.171,-2.368,5.367,-1.645,-2.791,0.0,0.0,0.0,0,1688145444.0966,2023-06-30 19:17:24,Rest
90,0,-2.165,-3.775,-1.406,0.45,4.706,1.183,-1.725,-7.844,-13.805,-13.805,-0.047,-10.192,-0.047,-10.192,-2.2,-3.008,-2.2,5.387,1.712,-1.759,0.446,5.387,-1.528,-1.533,-1.759,2.556,-6.246,-1.528,-0.316,7.411,0.406,3.36,0.0,0.0,0.0,0,1688145444.1044,2023-06-30 19:17:24,Rest
91,0,8.595,9.549,11.916,10.183,12.386,9.891,12.621,5.996,-0.983,-0.983,11.736,3.138,11.736,3.138,14.196,8.266,14.196,17.165,8.37,6.44,11.716,17.165,9.232,9.739,6.44,16.385,2.982,9.232,10.443,25.846,10.651,14.115,0.0,0.0,0.0,0,1688145444.1123,2023-06-30 19:17:24,Rest
92,0,5.513,8.515,7.293,8.636,7.763,7.32,10.047,2.404,-3.544,-3.544,8.651,2.11,8.651,2.11,9.571,8.77,9.571,6.902,1.702,0.798,3.508,6.902,1.025,4.094,0.798,10.734,-6.242,1.025,6.846,24.796,5.005,8.465,0.0,0.0,0.0,0,1688145444.1201,2023-06-30 19:17:24,Rest
93,0,-7.3,-5.839,-7.571,-2.644,-0.442,-3.446,-6.869,-9.894,-13.274,-13.274,-5.19,-13.261,-5.19,-13.261,-8.881,-6.096,-8.881,-4.888,-7.009,-7.912,-8.279,-4.888,-7.685,-8.206,-7.912,-3.622,-16.482,-7.685,-6.481,14.013,-6.27,-5.375,0.0,0.0,0.0,0,1688145444.1279,2023-06-30 19:17:24,Rest
94,0,-2.17,-0.71,0.121,-1.104,4.169,2.705,1.335,-4.761,-4.552,-4.552,1.475,-9.661,1.475,-9.661,1.886,-6.09,1.886,7.924,0.17,1.318,0.438,7.924,3.081,2.049,1.318,6.628,-4.683,3.081,-0.839,30.905,3.47,-2.296,0.0,0.0,0.0,0,1688145444.1357,2023-06-30 19:17:24,Rest
95,0,6.541,8.0,6.781,5.557,6.726,7.313,10.043,1.391,0.064,0.064,8.133,1.107,8.133,1.107,12.13,3.65,12.13,10.478,3.244,6.952,6.586,10.478,4.615,7.682,6.952,10.72,3.007,4.615,8.383,38.559,10.638,3.342,0.0,0.0,0.0,0,1688145444.1435,2023-06-30 19:17:24,Rest
96,0,-3.711,-3.278,-4.497,1.453,1.597,-1.403,-1.238,-3.733,-7.109,-7.109,-2.633,-6.067,-2.633,-6.067,-3.251,-2.501,-3.251,-3.365,-6.493,-5.351,-5.716,-3.365,-7.173,-5.646,-5.351,-3.123,-8.267,-7.173,-1.359,22.126,-3.204,-2.297,4096.0,0.0,0.0,0,1688145444.1513,2023-06-30 19:17:24,Rest
97,0,-10.88,-9.935,-6.542,-2.647,0.058,-2.939,-1.749,-5.266,-3.003,-3.003,-5.704,-11.696,-5.704,-11.696,-5.297,-8.134,-5.297,-2.849,-7.511,-8.419,-10.321,-2.849,-6.141,-7.689,-8.419,-2.608,-13.382,-6.141,-7.505,25.69,-7.812,-6.906,4096.0,0.0,0.0,0,1688145444.1591,2023-06-30 19:17:24,Rest
98,0,-5.234,-3.778,-2.437,-2.132,3.132,0.65,3.376,-3.724,0.074,0.074,-1.6,-6.561,-1.6,-6.561,1.881,0.071,1.881,0.227,-3.918,-1.751,-4.163,0.227,-3.573,-3.583,-1.751,2.006,-8.758,-3.573,-1.35,37.448,-0.12,-5.874,4096.0,0.0,0.0,0,1688145444.1669,2023-06-30 19:17:24,Rest
99,0,-6.765,-7.36,-8.069,-1.617,4.153,-1.912,-2.263,-4.233,-6.586,-6.586,-6.209,-7.579,-6.209,-7.579,-6.83,2.12,-6.83,-3.359,-8.012,-5.335,-5.184,-3.359,-10.23,-8.19,-5.335,-4.144,-12.335,-10.23,-2.886,32.799,-2.681,-4.844,4096.0,0.0,0.0,0,1688145444.1748,2023-06-30 19:17:24,Rest
100,0,-9.32,-8.889,-5.5,1.458,5.174,0.139,0.301,-1.155,-2.481,-2.481,-4.666,-7.572,-4.666,-7.572,-5.799,0.581,-5.799,0.743,-7.492,-6.867,-6.203,0.743,-7.658,-6.133,-6.867,0.471,-15.397,-7.658,-6.469,34.304,-5.24,-0.74,4096.0,0.0,0.0,0,1688145444.1826,2023-06-30 19:17:24,Rest
101,0,-1.626,0.853,4.239,5.555,7.73,3.725,6.96,1.408,4.693,4.693,2.511,-2.441,2.511,-2.441,4.965,6.216,4.965,3.304,-1.849,0.313,0.463,3.304,-0.99,1.558,0.313,10.204,-9.234,-0.99,-0.827,44.515,0.401,2.847,4096.0,0.0,0.0,0,1688145444.1904,2023-06-30 19:17:24,Rest
102,0,2.474,2.902,2.698,5.55,8.235,4.746,3.367,1.406,0.59,0.59,3.021,-3.463,3.021,-3.463,2.911,6.722,2.911,2.788,-0.31,-0.712,4.049,2.788,-0.989,0.019,-0.712,7.632,-5.126,-0.989,1.223,46.52,0.913,2.331,4096.0,0.0,0.0,0,1688145444.1982,2023-06-30 19:17:24,Rest
103,0,-2.652,-0.687,1.159,5.032,7.202,6.278,0.29,0.893,-2.484,-2.484,0.456,-7.046,0.456,-7.046,1.884,2.105,1.884,5.859,0.202,-4.81,0.971,5.859,-0.988,-1.518,-4.81,7.625,-8.195,-0.988,-1.34,48.01,0.399,-0.232,4096.0,0.0,0.0,0,1688145444.206,2023-06-30 19:17:24,Rest
104,0,-6.747,-1.711,1.158,2.465,3.096,1.149,-0.223,-3.719,-7.092,-7.092,-2.106,-10.625,-2.106,-10.625,2.394,-3.021,2.394,-0.807,-4.409,-3.781,-5.69,-0.807,-5.598,-3.053,-3.781,8.642,-9.723,-5.598,-2.875,45.401,0.399,-1.769,4096.0,0.0,0.0,0,1688145444.2138,2023-06-30 19:17:24,Rest
105,0,-9.815,-9.394,-7.041,-6.247,-3.567,-7.049,-6.882,-10.887,-15.282,-15.282,-7.739,-17.274,-7.739,-17.274,-9.392,-14.288,-9.392,-13.101,-16.187,-10.949,-13.369,-13.101,-14.302,-10.222,-10.949,-2.125,-13.812,-14.302,-8.508,35.622,-8.311,-3.817,4096.0,0.0,0.0,0,1688145444.2216,2023-06-30 19:17:24,Rest
106,0,-14.416,-15.533,-14.206,-12.388,-8.686,-8.067,-13.023,-17.537,-16.292,-16.292,-13.879,-21.356,-13.879,-21.356,-17.067,-22.471,-17.067,-15.65,-23.856,-19.648,-20.528,-15.65,-16.337,-16.872,-19.648,-10.32,-23.532,-16.337,-15.159,32.0,-16.499,-8.936,3968.0,0.0,0.0,0,1688145444.2294,2023-06-30 19:17:24,Rest
107,0,-20.549,-17.566,-18.802,-13.4,-11.751,-13.182,-17.109,-23.154,-22.423,-22.423,-22.062,-25.433,-22.062,-25.433,-19.099,-23.985,-19.099,-19.22,-26.393,-22.189,-27.167,-19.22,-19.394,-22.49,-22.189,-13.896,-31.706,-19.394,-18.73,27.357,-18.02,-18.661,3968.0,0.0,0.0,0,1688145444.2373,2023-06-30 19:17:24,Rest
108,0,-23.09,-23.696,-22.37,-14.924,-12.764,-18.292,-18.116,-24.156,-29.573,-29.573,-24.089,-28.993,-24.089,-28.993,-24.715,-22.424,-24.715,-21.763,-26.879,-22.167,-27.14,-21.763,-21.424,-24.517,-22.167,-18.493,-28.088,-21.424,-19.736,23.744,-16.977,-23.253,3968.0,0.0,0.0,0,1688145444.2451,2023-06-30 19:17:24,Rest
109,0,-14.357,-18.037,-12.101,-9.274,-6.604,-6.49,-7.34,-14.398,-17.248,-17.248,-11.258,-16.669,-11.258,-16.669,-14.444,-9.594,-14.444,-7.908,-14.557,-13.436,-13.793,-7.908,-11.669,-11.685,-13.436,-9.253,-12.69,-11.669,-10.495,33.966,-7.226,-11.447,3968.0,0.0,0.0,0,1688145444.2529,2023-06-30 19:17:24,Rest
110,0,-2.048,-1.113,-0.306,3.543,2.112,3.762,3.939,-3.113,-1.861,-1.861,-1.0,-1.283,-1.0,-1.283,4.013,5.272,4.013,3.37,-1.735,-1.639,-1.996,3.37,-3.46,1.647,-1.639,4.589,-2.944,-3.46,1.299,46.74,4.052,1.885,4096.0,0.0,0.0,0,1688145444.2607,2023-06-30 19:17:24,Rest
111,0,-5.12,-1.624,-3.892,3.54,2.622,-1.877,0.348,-2.085,-4.933,-4.933,-4.585,-6.917,-4.585,-6.917,-0.602,2.193,-0.602,-2.781,-6.856,-4.712,-6.093,-2.781,-3.969,-3.99,-4.712,4.072,-9.089,-3.969,-1.264,44.644,0.974,-0.166,4096.0,0.0,0.0,0,1688145444.2685,2023-06-30 19:17:24,Rest
112,0,-14.848,-12.381,-9.523,-5.685,-3.016,-6.486,-6.824,-9.255,-12.101,-12.101,-8.679,-17.669,-8.679,-17.669,-12.896,-7.031,-12.896,-8.413,-16.583,-11.879,-13.259,-8.413,-8.063,-13.208,-11.879,-2.592,-13.69,-8.063,-10.997,38.964,-6.712,-7.851,4096.0,0.0,0.0,0,1688145444.2763,2023-06-30 19:17:24,Rest
113,0,-13.809,-12.369,-11.051,-5.679,-5.062,-3.918,-6.305,-10.783,-11.576,-11.576,-10.208,-13.553,-10.208,-13.553,-9.81,-8.048,-9.81,-5.331,-12.468,-9.306,-12.733,-5.331,-12.666,-13.195,-9.306,-3.102,-13.164,-12.666,-10.986,35.851,-4.656,-8.867,4096.0,0.0,0.0,0,1688145444.2841,2023-06-30 19:17:24,Rest
114,0,-9.184,-10.307,-11.552,-4.649,-3.52,-0.84,-3.737,-7.698,-9.003,-9.003,-11.222,-8.416,-11.222,-8.416,-6.214,-3.942,-6.214,-3.277,-5.796,-6.223,-8.11,-3.277,-12.141,-9.083,-6.223,-1.562,-13.663,-12.141,-7.901,33.254,-0.553,-6.809,4096.0,0.0,0.0,0,1688145444.2919,2023-06-30 19:17:24,Rest
115,0,-10.2,-8.76,-7.954,-6.694,-3.004,-0.327,-1.172,-8.203,-8.994,-8.994,-7.112,-11.481,-7.112,-11.481,-7.744,-0.864,-7.744,-4.298,-6.302,-7.753,-8.614,-4.298,-8.543,-6.0,-7.753,-3.097,-13.137,-8.543,-5.844,34.245,-2.089,-6.29,4096.0,0.0,0.0,0,1688145444.2998,2023-06-30 19:17:24,Rest
116,0,-8.653,-5.677,-4.872,-2.076,-2.489,-2.376,0.878,-6.658,-11.035,-11.035,-4.031,-13.519,-4.031,-13.519,-5.175,-5.474,-5.175,-3.781,-8.345,-7.233,-11.679,-3.781,-5.973,-4.457,-7.233,-2.582,-10.05,-5.973,-4.301,36.772,-3.112,-4.235,4096.0,0.0,0.0,0,1688145444.3076,2023-06-30 19:17:24,Rest
117,0,2.627,0.476,1.792,7.147,4.686,3.262,7.025,4.107,-1.802,-1.802,2.12,-3.26,2.12,-3.26,5.589,-3.419,5.589,6.981,1.909,4.557,1.652,6.981,5.816,2.207,4.557,9.716,-1.843,5.816,5.437,46.469,8.162,2.942,4096.0,0.0,0.0,0,1688145444.3154,2023-06-30 19:17:24,Rest
118,0,21.067,20.456,21.258,17.899,20.05,21.702,23.924,16.399,18.18,18.18,22.611,17.748,22.611,17.748,22.489,19.638,22.489,30.54,23.424,25.557,26.754,30.54,25.278,22.185,25.557,29.174,18.651,25.278,25.924,67.94,28.647,18.82,4096.0,0.0,0.0,0,1688145444.3232,2023-06-30 19:17:24,Rest
119,0,35.391,38.878,36.094,33.25,33.863,36.537,39.782,29.702,31.994,31.994,37.957,31.563,37.957,31.563,39.885,38.062,39.885,46.391,37.746,40.389,40.047,46.391,36.011,39.069,40.389,35.293,36.05,36.011,42.292,81.192,39.889,35.195,4096.0,0.0,0.0,0,1688145444.331,2023-06-30 19:17:24,Rest
120,0,39.966,38.839,37.595,41.926,38.44,40.087,42.304,42.48,35.036,35.036,38.944,35.117,38.944,35.117,45.993,38.536,45.993,45.32,40.782,43.422,43.081,45.32,40.586,40.567,43.422,33.72,38.576,40.586,42.762,77.524,40.361,42.333,4096.0,0.0,0.0,0,1688145444.3388,2023-06-30 19:17:24,Rest
121,0,34.803,35.727,38.069,38.298,34.815,37.997,39.188,39.876,33.976,33.976,37.368,34.058,37.368,34.058,38.775,42.596,38.775,42.201,39.204,40.817,45.087,42.201,43.107,37.452,40.817,34.199,35.464,43.107,37.084,72.324,38.784,39.729,4096.0,0.0,0.0,0,1688145444.3466,2023-06-30 19:17:24,Rest
122,0,26.059,30.568,32.908,30.575,28.12,29.762,31.976,28.566,27.282,27.282,30.671,22.753,30.671,22.753,29.002,37.942,29.002,38.573,29.943,31.555,35.82,38.573,34.355,30.243,31.555,26.48,28.256,34.355,30.899,66.616,34.134,30.98,4096.0,0.0,0.0,0,1688145444.3544,2023-06-30 19:17:24,Rest
123,0,22.959,24.39,26.215,27.471,29.629,27.683,27.846,30.586,26.23,26.23,22.443,16.582,22.443,16.582,25.387,23.047,25.387,31.362,24.278,27.937,28.1,31.362,27.148,24.577,27.937,19.794,22.592,27.148,29.331,59.377,33.075,28.387,4096.0,0.0,0.0,0,1688145444.3623,2023-06-30 19:17:24,Rest
124,0,28.572,30.513,32.337,34.615,35.235,35.853,34.478,37.216,34.401,34.401,28.056,26.3,28.056,26.3,28.948,26.098,28.948,30.818,28.864,34.569,36.269,30.818,32.756,30.188,34.569,25.409,27.693,32.756,33.913,60.855,37.653,35.531,4096.0,0.0,0.0,0,1688145444.3701,2023-06-30 19:17:24,Rest
125,0,28.031,32.019,31.792,36.118,31.613,31.718,35.98,32.568,32.83,32.83,29.565,26.786,29.565,26.786,29.943,30.683,29.943,30.275,24.737,30.948,33.159,30.275,32.211,31.182,30.948,25.896,27.153,32.211,32.854,60.282,34.542,34.983,4096.0,0.0,0.0,0,1688145444.3779,2023-06-30 19:17:24,Rest
126,0,23.904,24.815,25.1,27.372,26.971,25.027,29.284,30.998,24.088,24.088,21.851,19.074,21.851,19.074,27.352,20.918,27.352,24.097,19.589,23.745,22.367,24.097,27.056,25.516,23.745,23.821,19.441,27.056,28.723,56.635,30.409,28.801,4096.0,0.0,0.0,0,1688145444.3857,2023-06-30 19:17:24,Rest
127,0,32.077,35.036,35.834,34.005,34.629,38.322,37.964,41.213,32.773,32.773,30.538,27.252,30.538,27.252,31.935,28.582,31.935,33.807,32.89,38.578,37.714,33.807,36.763,34.199,38.578,37.117,29.155,36.763,36.379,69.899,42.161,39.018,4096.0,0.0,0.0,0,1688145444.3935,2023-06-30 19:17:24,Rest
0,0,41.267,45.76,43.995,45.242,40.229,45.968,46.635,44.758,44.011,44.011,42.803,36.959,42.803,36.959,41.125,43.923,41.125,49.654,42.078,47.761,52.021,49.654,45.948,44.924,47.761,42.715,43.471,45.948,45.052,81.099,51.341,49.737,0.0,0.0,0.0,0,1688145444.4013,2023-06-30 19:17:24,Rest
1,0,35.078,35.468,31.143,34.438,33.017,36.188,36.343,37.541,35.257,35.257,35.076,29.749,35.076,29.749,38.01,37.219,38.01,42.432,34.864,33.369,37.624,42.432,39.242,37.707,33.369,32.939,36.255,39.242,39.371,67.186,41.043,39.954,0.0,0.0,0.0,0,1688145444.4091,2023-06-30 19:17:24,Rest
2,0,28.895,29.797,27.014,26.207,27.348,32.566,33.233,32.381,24.976,24.976,27.868,24.597,27.868,24.597,29.263,31.546,29.263,32.656,31.755,29.237,29.902,32.656,33.567,30.497,29.237,29.832,23.411,33.567,31.647,58.922,32.293,30.692,0.0,0.0,0.0,0,1688145444.4169,2023-06-30 19:17:24,Rest
3,0,28.354,31.816,32.11,33.865,28.346,32.533,38.322,31.836,25.463,25.463,30.914,25.597,30.914,25.597,29.233,35.613,29.233,37.747,29.674,31.257,35.507,37.747,31.484,30.978,31.257,28.265,21.851,31.484,30.591,61.937,34.31,32.199,0.0,0.0,0.0,0,1688145444.4248,2023-06-30 19:17:24,Rest
4,0,22.178,24.612,22.856,29.22,28.317,26.353,29.062,28.73,22.876,22.876,25.248,21.473,25.248,21.473,26.643,26.868,26.643,31.049,21.96,20.467,26.25,31.049,24.793,25.312,20.467,21.577,18.755,24.793,26.462,52.653,31.202,28.068,0.0,0.0,0.0,0,1688145444.4326,2023-06-30 19:17:24,Rest
5,0,18.057,19.465,17.198,20.994,23.678,24.277,22.886,21.529,19.267,19.267,18.05,16.84,18.05,16.84,17.907,18.132,17.907,19.235,19.376,18.91,17.515,19.235,21.182,19.139,18.91,23.092,15.15,21.182,20.8,44.916,23.998,20.355,0.0,0.0,0.0,0,1688145444.4404,2023-06-30 19:17:24,Rest
6,0,24.699,21.494,24.865,25.584,21.093,26.815,31.06,23.045,24.371,24.371,21.618,18.873,21.618,18.873,23.012,23.749,23.012,28.949,22.431,29.137,26.207,28.949,24.234,24.755,29.137,28.705,19.746,24.234,23.853,51.531,27.56,21.872,0.0,0.0,0.0,0,1688145444.4482,2023-06-30 19:17:24,Rest
7,0,32.359,26.596,28.427,32.731,26.195,31.911,38.201,36.342,33.568,33.568,32.355,26.539,32.355,26.539,35.284,32.947,35.284,39.679,29.068,30.133,32.84,39.679,30.358,32.415,30.133,33.287,26.386,30.358,32.538,55.066,37.779,30.559,0.0,0.0,0.0,0,1688145444.456,2023-06-30 19:17:24,Rest
8,0,33.351,35.279,30.96,38.846,31.804,38.027,38.675,45.527,39.17,39.17,37.958,32.66,37.958,32.66,36.274,38.037,36.274,34.516,35.187,30.102,35.369,34.516,37.5,34.432,30.102,36.84,30.458,37.5,36.092,54.498,40.303,35.652,0.0,0.0,0.0,0,1688145444.4638,2023-06-30 19:17:24,Rest
9,0,26.146,31.657,31.441,38.295,26.649,32.353,34.026,37.797,34.008,34.008,28.699,24.43,28.699,24.43,27.016,28.265,27.016,29.358,25.93,28.535,32.772,29.358,30.29,27.737,28.535,28.606,27.354,30.29,30.421,50.858,32.578,29.468,0.0,0.0,0.0,0,1688145444.4716,2023-06-30 19:17:24,Rest
10,0,15.873,15.232,17.577,21.35,16.376,18.489,21.696,24.951,21.679,21.679,13.813,9.549,13.813,9.549,16.23,10.306,16.23,21.132,12.072,15.187,16.858,21.132,13.866,13.877,15.187,15.77,13.494,13.866,17.07,37.999,23.836,15.094,0.0,0.0,0.0,0,1688145444.4794,2023-06-30 19:17:24,Rest
11,0,9.197,10.093,7.313,13.644,11.749,14.884,15.015,17.754,16.534,16.534,10.213,6.465,10.213,6.465,10.066,10.296,10.066,8.816,8.986,6.975,5.57,8.816,9.241,8.74,6.975,12.168,5.284,9.241,9.368,31.301,20.738,9.444,0.0,0.0,0.0,0,1688145444.4873,2023-06-30 19:17:24,Rest
12,0,10.213,14.694,14.478,23.364,13.275,14.869,19.61,18.248,17.542,17.542,11.74,10.557,11.74,10.557,12.618,18.483,12.618,8.295,8.977,13.628,10.688,8.295,14.355,14.367,13.628,13.692,6.815,14.355,14.482,33.831,21.23,17.119,0.0,0.0,0.0,0,1688145444.4951,2023-06-30 19:17:24,Rest
13,0,14.813,14.679,18.562,24.366,15.823,14.342,21.64,22.841,16.5,16.5,13.265,9.522,13.265,9.522,17.216,15.39,17.216,15.459,9.993,17.2,12.726,15.459,15.365,15.377,17.2,14.191,6.296,15.365,17.542,31.748,21.721,20.176,0.0,0.0,0.0,0,1688145444.5029,2023-06-30 19:17:24,Rest
14,0,17.873,16.714,16.495,19.73,18.369,18.938,21.106,24.867,15.971,15.971,19.399,12.074,19.399,12.074,17.711,18.449,17.711,21.591,17.667,17.183,13.226,21.591,17.399,15.874,17.183,17.763,8.851,17.399,16.499,29.667,23.236,16.569,0.0,0.0,0.0,0,1688145444.5107,2023-06-30 19:17:24,Rest
15,0,21.953,20.796,19.552,23.809,17.326,23.53,26.72,22.281,19.541,19.541,24.503,19.234,24.503,19.234,21.792,31.238,21.792,30.278,24.822,24.851,23.459,30.278,24.554,24.568,24.851,21.844,18.576,24.554,22.631,36.298,28.336,19.627,0.0,0.0,0.0,0,1688145444.5185,2023-06-30 19:17:24,Rest
16,0,29.103,21.287,24.143,24.298,15.771,25.556,31.817,23.283,22.083,22.083,26.528,20.752,26.528,20.752,28.43,31.207,28.43,34.859,26.334,31.486,26.509,34.859,29.653,28.642,31.486,26.945,24.193,29.653,29.78,41.897,32.918,24.73,0.0,0.0,0.0,0,1688145444.5263,2023-06-30 19:17:24,Rest
17,0,32.661,27.926,29.754,25.81,19.342,31.166,33.834,30.432,25.647,25.647,33.161,23.293,33.161,23.293,31.988,25.028,31.988,34.824,26.82,34.528,27.507,34.824,35.258,30.662,34.528,33.578,29.292,35.258,33.337,47.49,36.984,28.291,0.0,0.0,0.0,0,1688145444.5341,2023-06-30 19:17:24,Rest
18,0,39.8,42.755,40.995,40.641,29.056,40.356,42.509,42.185,35.868,35.868,40.813,34.54,40.813,34.54,40.665,32.175,40.665,44.011,36.527,44.227,43.874,44.011,46.494,42.415,44.227,40.204,35.923,46.494,45.086,56.664,46.169,40.559,0.0,0.0,0.0,0,1688145444.5419,2023-06-30 19:17:24,Rest
19,0,47.445,47.323,46.59,48.285,38.249,45.439,49.127,50.34,42.492,42.492,43.846,38.092,43.846,38.092,46.26,41.365,46.26,49.602,45.2,48.794,50.49,49.602,49.009,47.495,48.794,42.726,34.35,49.009,49.652,56.608,52.782,48.715,0.0,0.0,0.0,0,1688145444.5498,2023-06-30 19:17:24,Rest
20,0,38.176,39.079,36.809,40.553,35.649,40.783,42.418,46.191,37.326,37.326,39.191,32.419,39.191,32.419,35.967,35.176,35.967,35.72,33.884,34.401,34.558,35.72,37.177,36.177,34.401,38.072,28.68,37.177,37.819,43.743,42.996,40.982,0.0,0.0,0.0,0,1688145444.5576,2023-06-30 19:17:24,Rest
21,0,28.916,32.892,29.088,38.463,27.416,34.082,38.277,41.022,36.264,36.264,30.443,33.923,30.443,33.923,28.247,30.017,28.247,24.926,20.018,23.095,25.302,24.926,29.967,29.481,23.095,31.887,25.578,29.967,33.683,38.064,33.731,35.818,0.0,0.0,0.0,0,1688145444.5654,2023-06-30 19:17:24,Rest
22,0,35.547,32.859,33.67,40.986,28.413,34.048,41.825,44.054,43.913,43.913,28.875,40.549,28.875,40.549,33.342,36.135,33.342,28.487,24.096,26.146,27.838,28.487,30.45,33.037,26.146,30.83,20.941,30.45,37.236,39.563,34.722,37.319,0.0,0.0,0.0,0,1688145444.5732,2023-06-30 19:17:24,Rest
23,0,37.561,35.388,37.222,37.871,35.045,36.063,42.295,45.547,45.406,45.406,35.507,38.972,35.507,38.972,35.87,38.66,35.87,35.119,31.757,31.243,31.908,35.119,32.981,35.566,31.243,33.361,21.945,32.981,35.149,39.524,36.224,36.769,0.0,0.0,0.0,0,1688145444.581,2023-06-30 19:17:24,Rest
24,0,46.233,49.185,47.943,49.616,43.207,45.761,52.499,55.748,50.483,50.483,48.791,45.08,48.791,45.08,47.105,44.769,47.105,54.039,47.094,49.655,51.857,54.039,52.416,48.338,49.655,46.135,43.952,52.416,49.459,57.415,53.094,50.052,0.0,0.0,0.0,0,1688145444.5888,2023-06-30 19:17:24,Rest
25,0,73.851,70.14,71.974,70.059,58.021,67.744,75.5,78.746,69.388,69.388,67.698,64.503,67.698,64.503,72.161,62.143,72.161,78.576,72.662,76.758,77.42,78.576,78.491,72.368,76.758,68.118,69.524,78.491,78.611,86.559,83.267,72.544,0.0,0.0,0.0,0,1688145444.5966,2023-06-30 19:17:24,Rest
26,0,77.876,72.119,76.0,68.964,61.036,72.799,76.45,79.692,70.856,70.856,72.753,68.537,72.753,68.537,76.699,62.593,76.699,75.423,72.59,77.193,75.806,75.423,76.363,75.882,77.193,71.124,69.966,76.363,79.557,83.911,83.184,76.57,0.0,0.0,0.0,0,1688145444.6044,2023-06-30 19:17:24,Rest
27,0,60.892,62.313,62.092,59.674,50.729,58.382,62.541,62.194,56.953,56.953,61.922,56.685,61.922,56.685,64.839,51.772,64.839,61.516,56.123,61.747,64.971,61.516,62.454,65.048,61.747,60.294,61.187,62.454,65.132,68.458,65.682,70.345,0.0,0.0,0.0,0,1688145444.6123,2023-06-30 19:17:24,Rest
28,0,68.003,69.423,68.178,66.786,53.752,57.811,67.601,67.255,59.457,59.457,65.446,57.653,65.446,57.653,69.898,59.405,69.898,69.651,63.752,65.783,74.128,69.651,71.101,68.569,65.783,64.332,65.737,71.101,71.215,76.074,74.838,73.861,0.0,0.0,0.0,0,1688145444.6201,2023-06-30 19:17:24,Rest
29,0,73.058,71.915,71.696,64.67,57.797,63.901,69.583,72.823,58.373,58.373,71.016,58.62,71.016,58.62,71.365,62.42,71.365,72.655,68.299,70.328,75.591,72.655,75.129,70.037,70.328,67.854,67.208,75.129,72.681,77.022,80.399,70.714,0.0,0.0,0.0,0,1688145444.6279,2023-06-30 19:17:24,Rest
30,0,56.079,54.425,53.181,50.773,43.907,55.128,54.144,54.307,38.847,38.847,56.6,44.729,56.6,44.729,54.899,47.5,54.899,56.189,50.3,58.987,57.584,56.189,61.221,57.672,58.987,54.979,55.87,61.221,58.263,61.064,63.412,56.81,0.0,0.0,0.0,0,1688145444.6357,2023-06-30 19:17:24,Rest
31,0,58.584,53.858,56.202,56.358,43.351,53.024,56.652,51.691,42.394,42.394,57.056,47.246,57.056,47.246,58.943,51.039,58.943,58.182,52.299,59.441,58.551,58.182,62.697,60.688,59.441,55.948,54.79,62.697,63.328,63.564,64.886,58.803,0.0,0.0,0.0,0,1688145444.6435,2023-06-30 19:17:24,Rest
32,0,73.895,71.735,74.076,69.622,59.701,64.754,71.452,71.619,65.406,65.406,73.393,64.617,73.393,64.617,76.303,62.771,76.303,74.005,69.153,70.652,74.374,74.005,73.905,73.947,70.652,68.188,61.907,73.905,75.56,71.698,79.165,74.113,4096.0,0.0,0.0,0,1688145444.6513,2023-06-30 19:17:24,Rest
33,0,62.038,65.516,63.756,60.843,54.519,63.152,64.72,68.474,60.73,60.73,63.073,55.843,63.073,55.843,64.955,48.876,64.955,64.71,59.862,62.897,64.566,64.71,64.609,64.139,62.897,58.898,57.234,64.609,61.652,57.794,68.328,67.892,4096.0,0.0,0.0,0,1688145444.6591,2023-06-30 19:17:24,Rest
34,0,43.021,42.909,45.761,44.9,38.582,47.207,48.774,49.45,40.689,40.689,42.518,35.295,42.518,35.295,45.423,32.945,45.423,45.177,39.822,42.341,41.448,45.177,47.639,44.608,42.341,38.859,42.32,47.639,44.172,40.317,50.329,45.794,4096.0,0.0,0.0,0,1688145444.6669,2023-06-30 19:17:24,Rest
35,0,42.465,38.255,43.154,42.806,38.032,40.5,45.652,47.351,40.136,40.136,42.475,36.285,42.475,36.285,44.353,33.425,44.353,41.546,36.196,38.201,37.82,41.546,40.931,42.514,38.201,38.308,35.618,40.931,45.153,35.666,48.741,40.626,4096.0,0.0,0.0,0,1688145444.6748,2023-06-30 19:17:24,Rest
36,0,46.009,43.34,41.574,46.35,40.043,44.046,46.631,51.915,43.682,43.682,43.97,41.884,43.97,41.884,44.308,36.977,44.308,43.554,39.746,45.335,42.905,43.554,41.915,45.545,45.335,44.93,38.656,41.915,46.132,35.631,50.742,46.733,4096.0,0.0,0.0,0,1688145444.6826,2023-06-30 19:17:24,Rest
37,0,42.377,40.735,40.508,43.742,34.88,44.514,44.022,47.764,36.466,36.466,38.803,34.157,38.803,34.157,40.166,34.379,40.166,41.973,38.169,44.265,38.764,41.973,44.947,40.889,44.265,42.323,40.154,44.947,39.938,33.546,48.642,42.587,4096.0,0.0,0.0,0,1688145444.6904,2023-06-30 19:17:24,Rest
38,0,37.211,37.62,42.517,38.575,32.283,39.859,42.954,44.643,33.868,33.868,38.764,30.537,38.764,30.537,41.15,32.808,41.15,41.931,35.57,39.61,37.701,41.931,43.877,38.286,39.61,36.646,37.04,43.877,39.386,27.877,48.081,38.446,4096.0,0.0,0.0,0,1688145444.6982,2023-06-30 19:17:24,Rest
39,0,42.297,42.193,42.986,41.098,37.374,42.893,47.522,49.721,41.519,41.519,44.873,41.265,44.873,41.265,46.744,43.021,46.744,50.598,42.194,47.255,46.885,50.598,44.346,44.396,47.255,39.17,43.151,44.346,47.031,28.874,53.156,43.531,4096.0,0.0,0.0,0,1688145444.706,2023-06-30 19:17:24,Rest
40,0,55.063,50.348,48.579,49.254,44.509,52.072,54.134,55.307,46.088,46.088,53.025,50.957,53.025,50.957,54.895,57.323,54.895,60.794,53.935,56.429,53.498,60.794,54.035,52.036,56.429,47.84,54.891,54.035,53.132,40.115,59.763,48.611,4096.0,0.0,0.0,0,1688145444.7138,2023-06-30 19:17:24,Rest
41,0,53.983,51.322,50.579,49.204,42.415,52.019,54.592,53.715,42.968,42.968,53.484,46.808,53.484,46.808,55.352,50.605,55.352,56.122,51.832,51.25,50.37,56.122,53.469,52.496,51.25,49.33,51.25,53.469,52.567,40.075,60.728,51.636,4096.0,0.0,0.0,0,1688145444.7216,2023-06-30 19:17:24,Rest
42,0,45.732,47.173,45.406,48.643,39.299,44.795,50.951,52.124,40.876,40.876,44.209,39.077,44.209,39.077,46.075,36.722,46.075,43.771,39.997,43.001,44.685,43.771,42.144,48.345,43.001,41.083,40.953,42.144,48.416,32.351,55.032,52.609,4096.0,0.0,0.0,0,1688145444.7294,2023-06-30 19:17:24,Rest
43,0,49.785,49.175,47.922,53.717,44.383,45.775,51.413,56.683,43.909,43.909,43.653,42.624,43.653,42.624,45.517,39.247,45.517,46.801,39.957,45.008,44.64,46.801,44.664,48.297,45.008,41.555,41.936,44.664,48.879,34.88,55.489,50.507,4096.0,0.0,0.0,0,1688145444.7373,2023-06-30 19:17:24,Rest
44,0,53.321,52.712,50.435,51.614,44.338,49.315,54.435,54.577,42.84,42.84,50.269,44.63,50.269,44.63,50.594,41.257,50.594,52.902,44.015,50.086,48.181,52.902,51.791,50.298,50.086,47.661,44.968,51.791,50.88,35.357,60.044,50.456,4096.0,0.0,0.0,0,1688145444.7451,2023-06-30 19:17:24,Rest
45,0,47.632,45.999,43.213,44.39,39.171,47.729,50.795,46.325,37.674,37.674,45.608,36.389,45.608,36.389,45.421,33.019,45.421,45.677,40.898,49.011,46.596,45.677,48.154,48.198,49.011,43.002,43.386,48.154,47.755,27.125,54.861,48.357,4096.0,0.0,0.0,0,1688145444.7529,2023-06-30 19:17:24,Rest
46,0,45.023,40.83,42.145,42.809,39.132,43.583,43.572,47.816,35.587,35.587,39.927,33.278,39.927,33.278,41.277,27.863,41.277,40.508,35.734,42.302,38.865,40.508,45.032,44.052,42.302,37.324,42.831,45.032,44.633,24.536,47.122,40.624,4096.0,0.0,0.0,0,1688145444.7607,2023-06-30 19:17:24,Rest
47,0,38.318,36.691,38.004,37.131,32.945,35.855,37.38,44.182,30.941,30.941,36.301,31.196,36.301,31.196,38.674,22.712,38.674,34.832,25.964,29.964,27.043,34.832,35.253,35.298,29.964,31.651,33.054,35.253,36.904,17.34,39.39,34.948,4096.0,0.0,0.0,0,1688145444.7685,2023-06-30 19:17:24,Rest
48,0,18.812,19.235,15.937,21.725,16.518,20.962,25.047,22.621,17.078,17.078,19.871,14.771,19.871,14.771,18.655,11.931,18.655,16.354,11.081,10.467,10.622,16.354,12.676,15.795,10.467,10.615,8.942,12.676,16.887,-7.269,18.858,22.617,4096.0,0.0,0.0,0,1688145444.7763,2023-06-30 19:17:24,Rest
49,0,5.986,1.285,2.601,11.457,9.842,10.695,10.166,10.303,7.327,7.327,1.92,3.998,1.92,3.998,1.73,7.308,1.73,4.042,2.361,-1.327,-3.733,4.042,-0.144,3.484,-1.327,-7.327,-4.387,-0.144,1.501,-23.655,2.958,4.664,4096.0,0.0,0.0,0,1688145444.7841,2023-06-30 19:17:24,Rest
50,0,12.127,5.383,9.771,14.519,14.955,14.27,13.742,18.489,14.492,14.492,9.603,13.215,9.603,13.215,11.463,10.887,11.463,9.674,4.408,5.334,-1.168,9.674,7.028,12.702,5.334,1.39,7.401,7.028,10.209,-14.922,12.689,7.221,4096.0,0.0,0.0,0,1688145444.7919,2023-06-30 19:17:24,Rest
51,0,19.8,16.136,14.884,23.214,17.501,21.428,26.023,24.619,24.723,24.723,23.426,20.887,23.426,20.887,22.21,17.536,22.21,15.299,10.039,15.063,11.641,15.299,14.706,23.448,15.063,11.123,16.103,14.706,20.445,-3.637,23.434,19.509,4096.0,0.0,0.0,0,1688145444.7998,2023-06-30 19:17:24,Rest
52,0,15.682,14.07,13.332,21.654,16.459,19.87,22.923,21.52,19.063,19.063,19.304,15.743,19.304,15.743,16.552,20.592,16.552,15.284,12.59,15.56,13.166,15.284,13.666,17.277,15.56,4.964,8.402,13.666,14.277,-5.17,17.776,14.879,4096.0,0.0,0.0,0,1688145444.8076,2023-06-30 19:17:24,Rest
53,0,16.691,13.544,16.905,17.021,17.98,18.313,19.314,20.986,13.409,13.409,15.698,13.165,15.698,13.165,17.56,17.498,17.56,19.88,14.627,18.618,10.079,19.88,14.677,14.698,18.618,5.471,9.931,14.677,14.262,-6.189,18.782,12.302,4096.0,0.0,0.0,0,1688145444.8154,2023-06-30 19:17:24,Rest
54,0,26.408,21.215,20.987,22.127,21.548,24.955,28.516,24.039,20.568,20.568,22.343,16.738,22.343,16.738,24.202,16.968,24.202,22.421,17.174,22.186,15.192,22.421,19.273,24.929,22.186,15.712,21.704,19.273,25.007,-0.035,28.497,21.512,4096.0,0.0,0.0,0,1688145444.8232,2023-06-30 19:17:24,Rest
55,0,20.746,17.608,15.843,20.056,17.428,22.368,26.439,20.429,16.961,16.961,18.734,14.672,18.734,14.672,18.543,13.365,18.543,16.763,11.009,12.43,12.103,16.763,14.131,21.318,12.43,12.622,15.022,14.131,19.859,-4.646,20.272,17.392,4096.0,0.0,0.0,0,1688145444.831,2023-06-30 19:17:24,Rest
56,0,7.405,5.807,7.118,5.691,6.14,11.075,14.629,10.675,1.063,1.063,8.469,4.412,8.469,4.412,10.327,2.081,10.327,11.624,1.264,3.708,0.308,11.624,3.358,7.977,3.708,1.339,2.199,3.358,5.494,-17.962,6.932,4.567,4096.0,0.0,0.0,0,1688145444.8388,2023-06-30 19:17:24,Rest
57,0,12.521,8.363,6.598,5.173,5.621,13.113,16.664,9.127,0.549,0.549,13.584,2.358,13.584,2.358,13.391,1.054,13.391,13.661,5.873,10.365,3.894,13.661,7.453,11.555,10.365,4.924,8.345,7.453,9.075,-16.407,11.023,6.611,4096.0,0.0,0.0,0,1688145444.8466,2023-06-30 19:17:24,Rest
58,0,20.193,17.064,13.764,14.902,13.3,20.785,21.258,15.778,9.77,9.77,19.718,8.503,19.718,8.503,18.501,7.713,18.501,17.746,12.015,14.453,11.575,17.746,17.18,19.741,14.453,17.214,11.923,17.18,18.287,-5.119,17.672,14.802,4096.0,0.0,0.0,0,1688145444.8544,2023-06-30 19:17:24,Rest
59,0,20.685,17.559,17.336,14.887,15.336,21.276,20.724,18.324,9.248,9.248,17.649,10.544,17.649,10.544,18.482,3.095,18.482,18.753,9.442,12.901,12.076,18.753,17.675,18.696,12.901,22.32,8.837,17.675,19.806,-1.528,18.167,17.861,4096.0,0.0,0.0,0,1688145444.8623,2023-06-30 19:17:24,Rest
60,0,29.374,22.152,22.442,21.532,20.444,26.89,30.437,22.916,13.337,13.337,25.316,15.144,25.316,15.144,23.587,2.579,23.587,24.882,17.117,22.11,21.797,24.882,20.731,26.362,22.11,27.933,20.611,20.731,26.446,4.621,26.346,26.04,4096.0,0.0,0.0,0,1688145444.8701,2023-06-30 19:17:24,Rest
61,0,34.98,30.327,28.055,33.294,25.547,33.524,36.555,29.553,22.033,22.033,31.951,23.326,31.951,23.326,31.248,13.335,31.248,28.955,22.735,27.723,26.899,28.955,25.833,33.508,27.723,31.491,26.738,25.833,31.03,8.715,31.442,31.649,4096.0,0.0,0.0,0,1688145444.8779,2023-06-30 19:17:24,Rest
62,0,20.6,22.099,18.293,21.99,15.787,21.195,24.735,21.839,13.302,13.302,19.623,15.106,19.623,15.106,21.995,10.248,21.995,18.68,9.392,15.4,10.99,18.68,16.074,21.179,15.4,17.627,10.318,16.074,17.679,-4.614,17.579,20.859,4096.0,0.0,0.0,0,1688145444.8857,2023-06-30 19:17:24,Rest
63,0,6.235,8.245,3.93,5.062,6.55,9.39,14.464,9.009,0.481,0.481,8.845,0.234,8.845,0.234,5.067,1.016,5.067,7.903,1.186,5.651,-1.829,7.903,4.787,9.375,5.651,2.753,1.598,4.787,3.829,-15.368,4.753,7.006,4096.0,0.0,0.0,0,1688145444.8935,2023-06-30 19:17:24,Rest
64,0,7.253,7.725,7.512,9.155,10.642,12.967,14.962,9.513,4.067,4.067,10.373,3.307,10.373,3.307,7.111,5.626,7.111,11.994,4.771,9.744,2.272,11.994,6.831,9.366,9.744,5.312,8.256,6.831,6.899,-12.791,8.335,6.486,0.0,0.0,0.0,0,1688145444.9013,2023-06-30 19:17:24,Rest
65,0,11.857,11.303,12.116,15.293,13.193,15.516,18.021,14.114,8.673,8.673,10.363,11.501,10.363,11.501,16.325,7.157,16.325,15.568,4.766,12.295,5.856,15.568,9.386,10.893,12.295,7.868,9.785,9.386,13.552,-11.241,12.425,12.115,0.0,0.0,0.0,0,1688145444.9091,2023-06-30 19:17:24,Rest
66,0,12.357,9.242,8.517,14.766,9.593,14.476,18.515,13.075,5.591,5.591,9.84,6.879,9.84,6.879,10.674,0.49,10.674,10.429,5.274,9.209,3.288,10.429,6.815,14.468,9.209,2.737,9.263,6.815,13.027,-13.791,9.339,11.079,0.0,0.0,0.0,0,1688145444.9169,2023-06-30 19:17:24,Rest
67,0,6.709,5.135,5.435,14.239,7.535,12.924,14.911,11.525,3.024,3.024,9.318,1.236,9.318,1.236,4.003,1.002,4.003,6.833,2.195,3.565,-2.35,6.833,3.222,12.405,3.565,-1.877,8.229,3.222,6.866,-15.827,5.231,3.895,0.0,0.0,0.0,0,1688145444.9248,2023-06-30 19:17:24,Rest
68,0,3.117,2.056,3.38,8.589,7.015,10.35,12.846,8.952,4.558,4.558,5.21,4.309,5.21,4.309,6.561,4.587,6.561,7.338,-1.906,2.024,-3.373,7.338,0.145,4.195,2.024,-3.412,1.049,0.145,2.761,-16.323,2.664,0.817,0.0,0.0,0.0,0,1688145444.9326,2023-06-30 19:17:24,Rest
69,0,10.286,6.664,5.938,9.093,11.106,15.975,20.006,12.017,8.139,8.139,10.328,11.477,10.328,11.477,10.652,8.681,10.652,11.429,6.805,10.731,4.828,11.429,4.756,10.851,10.731,0.178,2.584,4.756,10.442,-10.672,5.735,7.477,0.0,0.0,0.0,0,1688145444.9404,2023-06-30 19:17:24,Rest
70,0,18.472,13.318,12.08,20.355,15.193,22.107,26.134,20.202,12.742,12.742,17.49,14.027,17.49,14.027,15.765,12.258,15.765,15.516,12.434,15.844,8.921,15.516,10.386,19.55,15.844,7.35,8.217,10.386,19.141,-6.05,12.39,12.08,0.0,0.0,0.0,0,1688145444.9482,2023-06-30 19:17:24,Rest
71,0,14.356,10.231,8.994,16.236,11.08,14.4,22.009,17.108,9.655,9.655,12.862,8.378,12.862,8.378,14.724,4.561,14.724,9.353,2.688,6.606,1.74,9.353,5.253,12.358,6.606,5.293,3.086,5.253,11.95,-11.167,9.816,8.482,0.0,0.0,0.0,0,1688145444.956,2023-06-30 19:17:24,Rest
72,0,5.632,2.536,0.788,1.875,5.946,7.213,12.765,4.795,-1.625,-1.625,5.677,-1.877,5.677,-1.877,4.464,-7.226,4.464,-1.415,-3.463,-1.597,-5.946,-1.415,-1.925,4.148,-1.597,-4.446,-2.04,-1.925,0.667,-18.328,0.072,-0.748,0.0,0.0,0.0,0,1688145444.9638,2023-06-30 19:17:24,Rest
73,0,-3.595,-5.151,-6.897,-3.762,0.304,4.132,3.019,-2.894,-13.407,-13.407,-2.014,-12.121,-2.014,-12.121,-4.25,-15.928,-4.25,-6.536,-8.07,-5.182,-13.625,-6.536,-8.07,-3.54,-5.182,-11.614,-8.186,-8.07,-5.481,-25.995,-8.125,-10.994,0.0,0.0,0.0,0,1688145444.9716,2023-06-30 19:17:24,Rest
74,0,-9.739,-13.343,-15.087,-9.906,-9.942,-3.557,-3.644,-8.014,-19.029,-19.029,-11.233,-18.769,-11.233,-18.769,-9.881,-24.109,-9.881,-11.653,-17.284,-12.349,-22.321,-11.653,-15.747,-13.271,-12.349,-14.676,-20.985,-15.747,-13.16,-33.141,-13.752,-16.106,0.0,0.0,0.0,0,1688145444.9794,2023-06-30 19:17:24,Rest
75,0,-10.242,-15.379,-16.097,-12.97,-11.981,-5.09,-4.665,-13.641,-17.985,-17.985,-11.222,-20.287,-11.222,-20.287,-13.97,-25.622,-13.97,-13.691,-18.803,-15.923,-26.397,-13.691,-18.293,-12.233,-15.923,-14.149,-21.477,-18.293,-16.733,-32.083,-16.812,-18.651,0.0,0.0,0.0,0,1688145444.9873,2023-06-30 19:17:24,Rest
76,0,-13.818,-16.388,-15.056,-10.908,-9.408,-4.573,-6.71,-15.677,-20.528,-20.528,-12.748,-20.779,-12.748,-20.779,-15.493,-23.547,-15.493,-14.189,-18.784,-15.907,-27.907,-14.189,-20.836,-11.196,-15.907,-17.208,-16.332,-20.836,-16.204,-33.076,-17.308,-24.268,0.0,0.0,0.0,0,1688145444.9951,2023-06-30 19:17:24,Rest
77,0,-19.952,-19.446,-19.139,-13.971,-12.472,-9.691,-8.24,-13.1,-23.07,-23.07,-20.932,-20.758,-20.932,-20.758,-15.477,-23.011,-15.477,-16.737,-20.815,-17.94,-27.367,-16.737,-21.327,-17.332,-17.94,-20.265,-19.902,-21.327,-18.237,-34.58,-14.729,-24.756,0.0,0.0,0.0,0,1688145445.0029,2023-06-30 19:17:25,Rest
78,0,-9.686,-9.692,-11.948,-9.346,-6.824,-1.485,2.527,-3.865,-12.288,-12.288,-10.152,-11.004,-10.152,-11.004,-9.314,-10.181,-9.314,-5.961,-11.06,-7.164,-14.532,-5.961,-7.474,-7.581,-7.164,-8.974,-10.661,-7.474,-11.047,-21.225,-4.468,-13.973,0.0,0.0,0.0,0,1688145445.0107,2023-06-30 19:17:25,Rest
79,0,2.619,3.125,1.896,4.495,4.965,11.325,12.258,4.336,0.532,0.532,4.202,-0.234,4.202,-0.234,0.429,3.15,0.429,6.34,-1.828,5.139,-2.734,6.34,3.292,5.234,5.139,2.306,4.719,3.292,1.772,-9.421,5.782,-4.737,0.0,0.0,0.0,0,1688145445.0185,2023-06-30 19:17:25,Rest
80,0,-1.994,-2.001,-2.204,1.929,2.911,6.703,6.098,2.282,-3.055,-3.055,-2.974,-3.82,-2.974,-3.82,-1.108,-0.952,-1.108,-0.839,-6.949,-1.526,-7.855,-0.839,-5.933,0.618,-1.526,-4.869,0.104,-5.933,1.258,-18.12,3.727,-6.782,0.0,0.0,0.0,0,1688145445.0263,2023-06-30 19:17:25,Rest
81,0,-4.553,-6.61,-7.325,-3.196,-1.19,1.06,4.043,1.255,-6.638,-6.638,-6.045,-6.378,-6.045,-6.378,-4.181,-4.025,-4.181,-4.936,-8.991,-6.648,-12.97,-4.936,-9.513,-2.456,-6.648,-7.426,-5.532,-9.513,-2.33,-23.738,-0.375,-9.849,0.0,0.0,0.0,0,1688145445.0341,2023-06-30 19:17:25,Rest
82,0,0.062,-0.456,0.367,5.004,2.91,5.158,8.137,3.815,-1.508,-1.508,2.158,-2.273,2.158,-2.273,0.946,-1.972,0.946,2.241,-4.884,-3.055,-8.859,2.241,-4.38,1.645,-3.055,0.779,-3.989,-4.38,0.234,-19.616,-1.399,-6.765,0.0,0.0,0.0,0,1688145445.0419,2023-06-30 19:17:25,Rest
83,0,-3.012,-2.505,-1.17,1.413,0.857,4.128,3.006,0.225,-5.605,-5.605,-1.943,-8.419,-1.943,-8.419,-4.178,-9.142,-4.178,-3.909,-8.977,-9.712,-11.411,-3.909,-8.474,-4.505,-9.712,-3.833,-11.157,-8.474,-4.889,-24.207,-4.984,-8.295,0.0,0.0,0.0,0,1688145445.0498,2023-06-30 19:17:25,Rest
84,0,0.065,-3.527,-3.218,-3.199,0.344,6.173,5.564,2.274,-7.136,-7.136,-1.941,-8.922,-1.941,-8.922,-3.149,-5.547,-3.149,-3.905,-6.407,-7.141,-11.912,-3.905,-4.88,-1.939,-7.141,-3.317,-8.072,-4.88,-3.347,-22.133,0.144,-8.287,0.0,0.0,0.0,0,1688145445.0576,2023-06-30 19:17:25,Rest
85,0,18.508,13.895,14.203,15.247,13.664,20.512,25.027,18.154,9.265,9.265,17.017,11.579,17.017,11.579,18.883,11.877,18.883,18.128,12.043,15.408,8.592,18.128,13.568,17.531,15.408,18.716,14.477,13.568,16.124,-1.619,18.075,9.14,0.0,0.0,0.0,0,1688145445.0654,2023-06-30 19:17:25,Rest
86,0,26.174,24.64,24.435,25.478,20.823,26.639,32.686,24.796,16.94,16.94,25.196,19.252,25.196,19.252,26.549,14.427,26.549,26.819,18.691,21.54,22.416,26.819,20.727,26.223,21.54,28.943,23.172,20.727,25.329,7.604,26.254,21.938,0.0,0.0,0.0,0,1688145445.0732,2023-06-30 19:17:25,Rest
87,0,20.0,18.468,17.751,13.67,16.191,23.026,23.944,18.623,8.726,8.726,18.511,8.986,18.511,8.986,15.252,6.216,15.252,16.546,10.987,12.297,13.684,16.546,15.071,18.512,12.297,19.693,14.952,15.071,18.132,-0.088,20.08,13.719,0.0,0.0,0.0,0,1688145445.081,2023-06-30 19:17:25,Rest
88,0,22.542,19.474,18.246,13.144,17.199,24.028,23.92,19.629,10.767,10.767,19.005,14.1,19.005,14.1,19.847,9.283,19.847,19.091,14.05,14.847,12.134,19.091,17.617,19.005,14.847,19.161,13.912,17.617,18.626,1.961,19.547,10.632,0.0,0.0,0.0,0,1688145445.0888,2023-06-30 19:17:25,Rest
89,0,27.13,22.016,21.301,21.84,20.256,27.077,30.044,24.732,17.928,17.928,23.085,22.796,23.085,22.796,24.951,15.934,24.951,24.708,19.159,18.93,18.781,24.708,21.186,25.134,18.93,22.216,18.509,21.186,23.73,5.546,21.577,17.793,0.0,0.0,0.0,0,1688145445.0966,2023-06-30 19:17:25,Rest
90,0,19.418,15.334,14.108,17.207,17.162,22.952,26.428,20.609,13.299,13.299,16.914,15.088,16.914,15.088,13.655,13.357,13.655,16.486,10.431,12.251,12.103,16.486,13.48,21.011,12.251,14.509,15.417,13.48,18.583,-4.706,14.896,13.165,0.0,0.0,0.0,0,1688145445.1044,2023-06-30 19:17:25,Rest
91,0,12.739,12.245,10.507,14.629,13.046,16.781,19.741,16.49,8.675,8.675,10.237,9.95,10.237,9.95,10.567,8.22,10.567,10.322,4.273,7.116,3.894,10.322,7.831,14.33,7.116,7.834,6.692,7.831,12.417,-9.312,6.684,5.979,0.0,0.0,0.0,0,1688145445.1123,2023-06-30 19:17:25,Rest
92,0,16.824,14.794,14.083,18.2,12.521,17.789,20.746,20.572,10.716,10.716,14.325,12.502,14.325,12.502,14.655,7.7,14.655,11.848,8.367,7.621,6.451,11.848,12.434,14.828,7.621,8.339,5.661,12.434,11.892,-3.155,7.702,9.56,0.0,0.0,0.0,0,1688145445.1201,2023-06-30 19:17:25,Rest
93,0,17.832,13.755,14.581,15.108,15.582,21.357,22.775,22.089,11.73,11.73,17.385,11.977,17.385,11.977,13.104,11.278,13.104,13.886,9.895,8.638,8.494,13.886,13.446,15.837,8.638,10.38,14.364,13.446,12.393,-2.127,12.305,10.575,0.0,0.0,0.0,0,1688145445.1279,2023-06-30 19:17:25,Rest
94,0,14.741,11.692,12.517,9.97,14.542,19.799,22.752,16.943,10.181,10.181,12.244,10.428,12.244,10.428,14.115,14.341,14.115,15.921,9.886,9.654,7.973,15.921,9.334,14.285,9.654,11.906,15.887,9.334,12.893,-3.15,14.854,6.466,0.0,0.0,0.0,0,1688145445.1357,2023-06-30 19:17:25,Rest
95,0,11.14,7.069,8.406,9.448,7.355,14.144,19.655,11.803,7.097,7.097,8.646,6.319,8.646,6.319,13.076,12.277,13.076,10.782,8.339,6.571,3.867,10.782,4.714,11.196,6.571,5.234,4.088,4.714,9.294,-5.708,11.765,3.898,0.0,0.0,0.0,0,1688145445.1435,2023-06-30 19:17:25,Rest
96,0,0.37,-4.721,-1.848,1.241,0.688,5.933,7.853,3.595,-4.181,-4.181,1.465,-3.421,1.465,-3.421,-1.794,4.068,-1.794,-4.598,-5.502,-5.731,-11.506,-4.598,-6.561,-1.11,-5.731,-8.091,-8.724,-6.561,-4.036,-20.559,-0.03,-3.791,4096.0,0.0,0.0,0,1688145445.1513,2023-06-30 19:17:25,Rest
